'sample interval','ECG0','ECG1'
'0.0078125 sec','mV','mV'
0,0.000,-0.240
1,0.005,-0.210
2,0.005,-0.220
3,0.000,-0.220
4,0.005,-0.215
5,0.000,-0.210
6,0.015,-0.245
7,0.010,-0.370
8,0.010,-0.430
9,0.030,0.070
10,0.150,1.045
11,0.320,2.195
12,0.415,2.585
13,0.380,1.455
14,0.135,0.565
15,-0.115,0.155
16,-0.075,-0.025
17,0.000,-0.150
18,0.020,-0.210
19,0.000,-0.265
20,-0.005,-0.285
21,0.010,-0.295
22,0.025,-0.325
23,0.000,-0.325
24,0.010,-0.340
25,0.000,-0.325
26,0.010,-0.350
27,0.025,-0.345
28,0.015,-0.335
29,0.035,-0.340
30,0.010,-0.335
31,0.030,-0.340
32,0.030,-0.355
33,0.035,-0.330
34,0.060,-0.320
35,0.045,-0.335
36,0.055,-0.300
37,0.055,-0.320
38,0.045,-0.300
39,0.080,-0.310
40,0.090,-0.290
41,0.090,-0.280
42,0.130,-0.270
43,0.130,-0.250
44,0.170,-0.250
45,0.155,-0.220
46,0.175,-0.225
47,0.175,-0.220
48,0.180,-0.195
49,0.195,-0.170
50,0.190,-0.180
51,0.190,-0.185
52,0.180,-0.155
53,0.165,-0.120
54,0.155,-0.115
55,0.125,-0.095
56,0.110,-0.100
57,0.095,-0.095
58,0.065,-0.075
59,0.055,-0.085
60,0.020,-0.135
61,0.010,-0.155
62,0.020,-0.155
63,0.010,-0.170
64,0.015,-0.195
65,0.015,-0.180
66,0.025,-0.200
67,0.005,-0.210
68,0.025,-0.200
69,0.025,-0.210
70,0.015,-0.215
71,0.030,-0.200
72,0.005,-0.185
73,0.025,-0.200
74,0.020,-0.200
75,0.020,-0.185
76,0.015,-0.190
77,0.020,-0.180
78,0.025,-0.175
79,0.035,-0.185
80,0.030,-0.185
81,0.030,-0.175
82,0.015,-0.185
83,0.015,-0.195
84,0.030,-0.185
85,0.025,-0.175
86,0.020,-0.195
87,0.020,-0.180
88,0.035,-0.205
89,0.020,-0.215
90,0.010,-0.205
91,0.020,-0.205
92,0.005,-0.205
93,0.015,-0.210
94,0.000,-0.215
95,0.010,-0.220
96,0.015,-0.205
97,0.015,-0.200
98,0.000,-0.205
99,0.005,-0.200
100,-0.010,-0.205
101,0.010,-0.195
102,0.015,-0.210
103,0.010,-0.205
104,0.000,-0.195
105,0.010,-0.190
106,0.010,-0.195
107,0.005,-0.190
108,0.015,-0.205
109,0.005,-0.185
110,0.010,-0.190
111,0.005,-0.195
112,0.005,-0.180
113,0.010,-0.195
114,0.000,-0.200
115,0.020,-0.210
116,0.005,-0.185
117,0.025,-0.170
118,0.045,-0.150
119,0.055,-0.135
120,0.070,-0.100
121,0.080,-0.075
122,0.070,-0.055
123,0.060,-0.080
124,0.040,-0.115
125,0.000,-0.135
126,0.015,-0.125
127,0.015,-0.140
128,0.000,-0.140
129,0.025,-0.195
130,0.040,-0.220
131,0.005,-0.230
132,0.010,-0.250
133,0.005,-0.245
134,0.000,-0.235
135,0.010,-0.235
136,0.000,-0.240
137,-0.010,-0.225
138,0.000,-0.325
139,0.010,-0.485
140,0.010,-0.260
141,0.090,0.530
142,0.275,1.690
143,0.420,2.695
144,0.465,2.210
145,0.315,0.990
146,0.000,0.325
147,-0.130,0.055
148,-0.030,-0.085
149,0.025,-0.190
150,0.000,-0.260
151,0.010,-0.280
152,0.000,-0.300
153,0.005,-0.320
154,0.010,-0.315
155,0.020,-0.335
156,0.020,-0.325
157,0.020,-0.340
158,0.015,-0.340
159,0.000,-0.345
160,0.020,-0.330
161,0.025,-0.335
162,0.060,-0.340
163,0.045,-0.320
164,0.030,-0.315
165,0.050,-0.320
166,0.070,-0.335
167,0.070,-0.320
168,0.085,-0.285
169,0.075,-0.295
170,0.110,-0.295
171,0.090,-0.280
172,0.100,-0.275
173,0.135,-0.255
174,0.140,-0.255
175,0.160,-0.245
176,0.155,-0.245
177,0.195,-0.195
178,0.200,-0.195
179,0.200,-0.200
180,0.225,-0.180
181,0.210,-0.165
182,0.210,-0.135
183,0.215,-0.120
184,0.205,-0.100
185,0.180,-0.095
186,0.195,-0.075
187,0.145,-0.065
188,0.125,-0.060
189,0.115,-0.070
190,0.085,-0.055
191,0.060,-0.085
192,0.060,-0.105
193,0.055,-0.135
194,0.045,-0.130
195,0.035,-0.150
196,0.040,-0.160
197,0.035,-0.155
198,0.025,-0.175
199,0.055,-0.175
200,0.045,-0.195
201,0.035,-0.180
202,0.045,-0.175
203,0.040,-0.180
204,0.060,-0.190
205,0.055,-0.185
206,0.050,-0.185
207,0.050,-0.170
208,0.060,-0.160
209,0.055,-0.160
210,0.070,-0.150
211,0.065,-0.160
212,0.055,-0.145
213,0.055,-0.155
214,0.050,-0.140
215,0.050,-0.165
216,0.055,-0.155
217,0.050,-0.165
218,0.030,-0.170
219,0.045,-0.155
220,0.030,-0.160
221,0.040,-0.160
222,0.040,-0.175
223,0.025,-0.165
224,0.015,-0.165
225,0.015,-0.170
226,0.030,-0.175
227,0.015,-0.175
228,0.035,-0.160
229,0.010,-0.160
230,0.020,-0.180
231,0.025,-0.180
232,0.030,-0.175
233,0.040,-0.180
234,0.025,-0.180
235,0.040,-0.170
236,0.025,-0.170
237,0.035,-0.170
238,0.025,-0.165
239,0.030,-0.170
240,0.015,-0.170
241,0.015,-0.165
242,0.020,-0.165
243,0.030,-0.170
244,0.020,-0.165
245,0.010,-0.150
246,0.020,-0.160
247,0.015,-0.160
248,0.010,-0.170
249,0.015,-0.165
250,0.015,-0.160
251,0.030,-0.125
252,0.045,-0.110
253,0.080,-0.110
254,0.085,-0.100
255,0.085,-0.050
256,0.070,-0.035
257,0.060,-0.050
258,0.030,-0.105
259,0.010,-0.110
260,0.000,-0.105
261,0.000,-0.125
262,0.005,-0.135
263,0.010,-0.180
264,0.005,-0.220
265,-0.010,-0.220
266,0.000,-0.210
267,-0.010,-0.210
268,-0.010,-0.220
269,-0.015,-0.230
270,0.000,-0.220
271,0.000,-0.240
272,0.000,-0.390
273,0.000,-0.475
274,0.000,0.090
275,0.165,1.185
276,0.345,2.395
277,0.460,2.710
278,0.430,1.410
279,0.090,0.565
280,-0.115,0.165
281,-0.050,-0.010
282,0.025,-0.140
283,0.035,-0.205
284,0.010,-0.260
285,0.025,-0.275
286,0.025,-0.300
287,0.025,-0.305
288,0.030,-0.315
289,0.030,-0.315
290,0.020,-0.320
291,0.030,-0.325
292,0.040,-0.320
293,0.055,-0.335
294,0.060,-0.320
295,0.055,-0.340
296,0.075,-0.340
297,0.065,-0.335
298,0.065,-0.320
299,0.070,-0.315
300,0.055,-0.335
301,0.085,-0.285
302,0.095,-0.290
303,0.110,-0.285
304,0.110,-0.275
305,0.125,-0.265
306,0.135,-0.260
307,0.145,-0.245
308,0.175,-0.235
309,0.195,-0.225
310,0.200,-0.220
311,0.215,-0.220
312,0.225,-0.180
313,0.235,-0.170
314,0.240,-0.150
315,0.235,-0.115
316,0.225,-0.100
317,0.225,-0.060
318,0.210,-0.055
319,0.200,-0.040
320,0.195,-0.015
321,0.155,-0.025
322,0.135,-0.010
323,0.130,-0.040
324,0.085,-0.065
325,0.075,-0.085
326,0.040,-0.100
327,0.050,-0.115
328,0.040,-0.135
329,0.020,-0.140
330,0.040,-0.145
331,0.030,-0.140
332,0.040,-0.140
333,0.035,-0.155
334,0.035,-0.150
335,0.045,-0.170
336,0.035,-0.175
337,0.040,-0.165
338,0.050,-0.170
339,0.045,-0.155
340,0.080,-0.145
341,0.060,-0.150
342,0.060,-0.130
343,0.050,-0.130
344,0.055,-0.145
345,0.045,-0.155
346,0.055,-0.135
347,0.060,-0.130
348,0.045,-0.135
349,0.040,-0.145
350,0.035,-0.140
351,0.040,-0.160
352,0.040,-0.155
353,0.035,-0.160
354,0.030,-0.150
355,0.010,-0.170
356,0.025,-0.150
357,0.020,-0.160
358,0.025,-0.165
359,0.000,-0.165
360,0.015,-0.160
361,0.020,-0.160
362,0.005,-0.175
363,0.005,-0.145
364,0.030,-0.175
365,0.030,-0.180
366,0.020,-0.175
367,0.015,-0.195
368,0.010,-0.180
369,0.015,-0.170
370,0.025,-0.185
371,0.015,-0.180
372,0.020,-0.185
373,0.005,-0.190
374,0.030,-0.195
375,0.000,-0.180
376,0.010,-0.165
377,0.025,-0.175
378,0.015,-0.170
379,0.010,-0.190
380,0.000,-0.185
381,0.020,-0.185
382,0.000,-0.175
383,0.020,-0.180
384,0.020,-0.190
385,0.005,-0.165
386,0.000,-0.175
387,0.015,-0.160
388,0.015,-0.125
389,0.035,-0.145
390,0.055,-0.105
391,0.060,-0.070
392,0.055,-0.045
393,0.035,-0.085
394,0.000,-0.115
395,-0.020,-0.155
396,-0.025,-0.125
397,-0.030,-0.150
398,-0.035,-0.150
399,-0.025,-0.205
400,-0.010,-0.240
401,-0.035,-0.245
402,-0.040,-0.250
403,-0.030,-0.250
404,-0.040,-0.255
405,-0.035,-0.245
406,-0.010,-0.250
407,-0.050,-0.260
408,-0.015,-0.400
409,-0.025,-0.490
410,0.005,-0.010
411,0.115,0.950
412,0.285,2.110
413,0.385,2.630
414,0.400,1.540
415,0.150,0.580
416,-0.085,0.140
417,-0.095,-0.035
418,-0.025,-0.140
419,0.000,-0.235
420,-0.005,-0.300
421,0.000,-0.330
422,0.000,-0.335
423,0.000,-0.350
424,0.000,-0.345
425,-0.005,-0.350
426,-0.005,-0.365
427,0.000,-0.380
428,-0.005,-0.380
429,0.000,-0.375
430,0.000,-0.365
431,0.010,-0.375
432,0.005,-0.365
433,0.000,-0.355
434,0.005,-0.365
435,0.010,-0.370
436,0.020,-0.350
437,0.025,-0.350
438,0.035,-0.355
439,0.050,-0.350
440,0.055,-0.350
441,0.065,-0.320
442,0.075,-0.320
443,0.095,-0.310
444,0.110,-0.300
445,0.135,-0.290
446,0.130,-0.285
447,0.150,-0.245
448,0.165,-0.265
449,0.170,-0.255
450,0.170,-0.260
451,0.180,-0.220
452,0.175,-0.195
453,0.170,-0.180
454,0.145,-0.160
455,0.140,-0.145
456,0.115,-0.130
457,0.090,-0.130
458,0.070,-0.110
459,0.070,-0.125
460,0.055,-0.130
461,0.055,-0.150
462,0.030,-0.160
463,0.035,-0.170
464,0.020,-0.190
465,0.010,-0.200
466,0.030,-0.225
467,0.015,-0.240
468,0.025,-0.230
469,0.000,-0.230
470,0.025,-0.230
471,0.025,-0.235
472,0.025,-0.230
473,0.025,-0.245
474,0.030,-0.235
475,0.025,-0.245
476,0.045,-0.240
477,0.025,-0.245
478,0.030,-0.245
479,0.030,-0.245
480,0.015,-0.230
481,0.015,-0.240
482,0.020,-0.230
483,0.025,-0.240
484,0.015,-0.250
485,0.015,-0.255
486,0.000,-0.255
487,0.000,-0.265
488,0.000,-0.255
489,0.000,-0.270
490,0.000,-0.255
491,-0.015,-0.260
492,0.005,-0.250
493,-0.010,-0.260
494,0.005,-0.285
495,0.005,-0.280
496,-0.005,-0.265
497,0.015,-0.275
498,-0.005,-0.270
499,0.000,-0.270
500,-0.005,-0.275
501,-0.015,-0.280
502,0.000,-0.280
503,0.000,-0.280
504,0.000,-0.275
505,0.005,-0.280
506,-0.015,-0.290
507,0.000,-0.275
508,0.000,-0.275
509,-0.005,-0.265
510,-0.005,-0.265
511,0.000,-0.275
512,0.000,-0.280
513,0.000,-0.270
514,-0.010,-0.275
515,0.000,-0.270
516,-0.010,-0.275
517,0.000,-0.255
518,0.000,-0.225
519,0.005,-0.215
520,0.025,-0.200
521,0.040,-0.175
522,0.030,-0.145
523,0.015,-0.125
524,0.010,-0.150
525,-0.010,-0.190
526,-0.025,-0.205
527,-0.040,-0.205
528,-0.035,-0.205
529,-0.040,-0.240
530,-0.030,-0.260
531,-0.015,-0.315
532,-0.025,-0.310
533,-0.035,-0.315
534,-0.050,-0.315
535,-0.055,-0.305
536,-0.050,-0.305
537,-0.035,-0.310
538,-0.035,-0.305
539,-0.040,-0.355
540,-0.040,-0.550
541,-0.030,-0.430
542,0.025,0.280
543,0.195,1.385
544,0.360,2.460
545,0.445,2.370
546,0.340,1.100
547,0.055,0.325
548,-0.140,0.010
549,-0.065,-0.135
550,-0.005,-0.235
551,0.000,-0.305
552,-0.010,-0.370
553,0.000,-0.360
554,0.000,-0.395
555,0.000,-0.390
556,0.000,-0.405
557,0.000,-0.410
558,0.000,-0.400
559,0.000,-0.415
560,0.000,-0.420
561,0.005,-0.410
562,0.010,-0.405
563,0.030,-0.395
564,0.015,-0.405
565,0.035,-0.410
566,0.030,-0.400
567,0.035,-0.385
568,0.045,-0.400
569,0.045,-0.385
570,0.060,-0.380
571,0.060,-0.375
572,0.075,-0.360
573,0.095,-0.355
574,0.110,-0.350
575,0.120,-0.355
576,0.135,-0.320
577,0.150,-0.315
578,0.165,-0.305
579,0.190,-0.275
580,0.190,-0.255
581,0.195,-0.245
582,0.200,-0.240
583,0.195,-0.220
584,0.185,-0.200
585,0.185,-0.175
586,0.180,-0.150
587,0.160,-0.130
588,0.145,-0.130
589,0.120,-0.130
590,0.095,-0.115
591,0.070,-0.125
592,0.085,-0.160
593,0.065,-0.170
594,0.050,-0.185
595,0.035,-0.195
596,0.050,-0.215
597,0.045,-0.225
598,0.030,-0.245
599,0.035,-0.245
600,0.035,-0.235
601,0.025,-0.240
602,0.030,-0.250
603,0.035,-0.245
604,0.035,-0.255
605,0.045,-0.255
606,0.045,-0.245
607,0.035,-0.250
608,0.030,-0.250
609,0.030,-0.255
610,0.030,-0.255
611,0.035,-0.235
612,0.030,-0.225
613,0.060,-0.240
614,0.010,-0.215
615,0.020,-0.245
616,0.025,-0.245
617,0.025,-0.255
618,0.005,-0.250
619,0.020,-0.240
620,0.010,-0.250
621,0.030,-0.250
622,0.000,-0.250
623,0.010,-0.250
624,0.005,-0.255
625,0.000,-0.255
626,0.010,-0.260
627,0.000,-0.250
628,0.015,-0.255
629,0.015,-0.255
630,0.010,-0.245
631,0.000,-0.255
632,0.010,-0.255
633,0.000,-0.250
634,-0.005,-0.255
635,0.005,-0.250
636,0.000,-0.265
637,-0.010,-0.260
638,-0.005,-0.265
639,0.000,-0.255
640,-0.005,-0.270
641,0.000,-0.260
642,0.000,-0.255
643,0.000,-0.260
644,0.005,-0.250
645,0.000,-0.255
646,0.000,-0.270
647,0.000,-0.240
648,0.000,-0.270
649,0.000,-0.275
650,0.000,-0.260
651,0.005,-0.245
652,0.000,-0.220
653,0.015,-0.210
654,0.035,-0.185
655,0.035,-0.175
656,0.055,-0.145
657,0.030,-0.130
658,0.020,-0.135
659,0.005,-0.165
660,-0.035,-0.205
661,-0.035,-0.200
662,-0.030,-0.210
663,-0.030,-0.220
664,-0.010,-0.260
665,-0.020,-0.315
666,-0.025,-0.315
667,-0.030,-0.330
668,-0.030,-0.330
669,-0.020,-0.315
670,-0.030,-0.340
671,-0.020,-0.335
672,-0.035,-0.340
673,-0.030,-0.440
674,-0.010,-0.590
675,-0.005,-0.215
676,0.085,0.775
677,0.295,2.035
678,0.430,2.640
679,0.415,1.485
680,0.130,0.550
681,-0.130,0.100
682,-0.065,-0.110
683,0.000,-0.230
684,0.015,-0.305
685,0.020,-0.350
686,-0.005,-0.385
687,0.005,-0.405
688,0.010,-0.420
689,0.000,-0.435
690,0.000,-0.425
691,0.030,-0.440
692,0.030,-0.435
693,0.025,-0.430
694,0.015,-0.430
695,0.020,-0.435
696,0.025,-0.435
697,0.035,-0.445
698,0.050,-0.445
699,0.045,-0.440
700,0.070,-0.425
701,0.065,-0.415
702,0.060,-0.420
703,0.075,-0.410
704,0.100,-0.415
705,0.095,-0.400
706,0.115,-0.390
707,0.125,-0.375
708,0.130,-0.385
709,0.150,-0.360
710,0.175,-0.335
711,0.180,-0.325
712,0.200,-0.315
713,0.210,-0.300
714,0.220,-0.275
715,0.230,-0.250
716,0.245,-0.240
717,0.235,-0.210
718,0.220,-0.180
719,0.225,-0.160
720,0.220,-0.130
721,0.200,-0.115
722,0.180,-0.130
723,0.140,-0.120
724,0.125,-0.150
725,0.100,-0.150
726,0.080,-0.170
727,0.070,-0.190
728,0.060,-0.205
729,0.065,-0.225
730,0.070,-0.240
731,0.055,-0.240
732,0.045,-0.260
733,0.060,-0.265
734,0.055,-0.255
735,0.060,-0.260
736,0.060,-0.255
737,0.050,-0.265
738,0.065,-0.265
739,0.035,-0.280
740,0.060,-0.285
741,0.060,-0.285
742,0.060,-0.270
743,0.050,-0.265
744,0.055,-0.285
745,0.040,-0.285
746,0.030,-0.285
747,0.055,-0.280
748,0.025,-0.290
749,0.025,-0.280
750,0.040,-0.255
751,0.040,-0.290
752,0.025,-0.285
753,0.030,-0.270
754,0.025,-0.280
755,0.020,-0.280
756,0.025,-0.290
757,0.025,-0.285
758,0.025,-0.295
759,0.040,-0.285
760,0.015,-0.275
761,0.010,-0.300
762,0.010,-0.290
763,0.010,-0.285
764,0.015,-0.280
765,0.015,-0.290
766,0.005,-0.305
767,0.005,-0.315
768,0.020,-0.300
769,0.010,-0.290
770,0.025,-0.290
771,0.015,-0.285
772,0.000,-0.285
773,0.015,-0.295
774,0.025,-0.290
775,0.005,-0.280
776,0.015,-0.290
777,0.015,-0.285
778,0.025,-0.285
779,0.010,-0.305
780,0.015,-0.295
781,0.000,-0.300
782,0.005,-0.310
783,0.010,-0.320
784,0.000,-0.300
785,0.010,-0.255
786,0.010,-0.225
787,0.040,-0.235
788,0.050,-0.215
789,0.045,-0.165
790,0.050,-0.150
791,0.025,-0.165
792,0.020,-0.210
793,-0.010,-0.245
794,-0.005,-0.235
795,-0.015,-0.235
796,-0.020,-0.255
797,-0.005,-0.295
798,-0.015,-0.340
799,-0.015,-0.355
800,-0.025,-0.335
801,-0.020,-0.350
802,-0.015,-0.340
803,-0.010,-0.330
804,-0.025,-0.335
805,-0.010,-0.360
806,-0.010,-0.440
807,0.000,-0.595
808,0.005,-0.255
809,0.115,0.665
810,0.295,1.870
811,0.405,2.625
812,0.415,1.530
813,0.190,0.515
814,-0.075,0.065
815,-0.090,-0.110
816,-0.020,-0.235
817,0.010,-0.310
818,0.005,-0.375
819,0.020,-0.410
820,0.000,-0.425
821,0.000,-0.440
822,0.020,-0.430
823,0.010,-0.460
824,0.015,-0.460
825,0.025,-0.445
826,0.010,-0.455
827,0.025,-0.460
828,0.025,-0.450
829,0.030,-0.455
830,0.030,-0.475
831,0.045,-0.455
832,0.040,-0.435
833,0.055,-0.445
834,0.040,-0.450
835,0.055,-0.445
836,0.075,-0.440
837,0.065,-0.415
838,0.075,-0.415
839,0.095,-0.395
840,0.095,-0.405
841,0.115,-0.375
842,0.125,-0.360
843,0.150,-0.345
844,0.160,-0.350
845,0.180,-0.330
846,0.195,-0.325
847,0.200,-0.305
848,0.215,-0.280
849,0.220,-0.300
850,0.210,-0.270
851,0.205,-0.235
852,0.195,-0.240
853,0.180,-0.240
854,0.150,-0.205
855,0.120,-0.210
856,0.125,-0.190
857,0.115,-0.195
858,0.090,-0.205
859,0.080,-0.225
860,0.075,-0.240
861,0.060,-0.270
862,0.070,-0.270
863,0.040,-0.270
864,0.055,-0.300
865,0.045,-0.290
866,0.045,-0.305
867,0.035,-0.300
868,0.035,-0.310
869,0.035,-0.325
870,0.060,-0.320
871,0.045,-0.320
872,0.030,-0.335
873,0.035,-0.320
874,0.035,-0.305
875,0.035,-0.325
876,0.020,-0.310
877,0.025,-0.285
878,0.040,-0.300
879,0.015,-0.290
880,0.015,-0.300
881,0.020,-0.295
882,0.020,-0.290
883,0.015,-0.295
884,0.030,-0.305
885,0.025,-0.305
886,0.000,-0.300
887,0.010,-0.305
888,0.015,-0.295
889,0.015,-0.305
890,0.000,-0.315
891,0.010,-0.310
892,0.005,-0.310
893,0.000,-0.320
894,0.010,-0.295
895,0.000,-0.300
896,0.005,-0.310
897,-0.010,-0.305
898,0.000,-0.315
899,0.000,-0.320
900,0.005,-0.320
901,0.005,-0.320
902,0.010,-0.315
903,0.005,-0.315
904,0.000,-0.300
905,0.015,-0.305
906,0.000,-0.295
907,0.010,-0.305
908,-0.005,-0.305
909,0.005,-0.305
910,-0.015,-0.305
911,-0.010,-0.315
912,0.005,-0.315
913,0.000,-0.295
914,0.000,-0.255
915,0.015,-0.220
916,0.025,-0.235
917,0.035,-0.190
918,0.035,-0.170
919,0.025,-0.155
920,0.010,-0.225
921,-0.020,-0.265
922,-0.015,-0.255
923,-0.025,-0.255
924,-0.030,-0.255
925,-0.015,-0.270
926,-0.010,-0.340
927,-0.025,-0.340
928,-0.035,-0.355
929,-0.020,-0.355
930,-0.025,-0.350
931,-0.015,-0.345
932,-0.020,-0.325
933,-0.005,-0.315
934,0.000,-0.415
935,0.000,-0.590
936,-0.010,-0.435
937,0.045,0.340
938,0.255,1.515
939,0.425,2.595
940,0.465,2.165
941,0.355,0.920
942,0.025,0.225
943,-0.105,-0.055
944,-0.025,-0.185
945,0.030,-0.285
946,0.025,-0.340
947,0.035,-0.390
948,0.015,-0.405
949,0.020,-0.415
950,0.010,-0.415
951,0.020,-0.420
952,0.035,-0.440
953,0.045,-0.430
954,0.030,-0.435
955,0.035,-0.435
956,0.035,-0.430
957,0.030,-0.420
958,0.055,-0.420
959,0.055,-0.415
960,0.055,-0.425
961,0.075,-0.420
962,0.065,-0.420
963,0.075,-0.420
964,0.095,-0.395
965,0.105,-0.385
966,0.100,-0.360
967,0.125,-0.365
968,0.140,-0.360
969,0.155,-0.340
970,0.170,-0.335
971,0.180,-0.325
972,0.190,-0.305
973,0.205,-0.285
974,0.235,-0.265
975,0.250,-0.265
976,0.235,-0.235
977,0.260,-0.225
978,0.260,-0.215
979,0.245,-0.160
980,0.230,-0.145
981,0.210,-0.145
982,0.200,-0.120
983,0.180,-0.100
984,0.135,-0.105
985,0.130,-0.115
986,0.110,-0.110
987,0.090,-0.150
988,0.080,-0.175
989,0.075,-0.185
990,0.060,-0.215
991,0.075,-0.215
992,0.060,-0.230
993,0.065,-0.230
994,0.040,-0.245
995,0.040,-0.260
996,0.065,-0.260
997,0.050,-0.260
998,0.050,-0.255
999,0.035,-0.245
1000,0.055,-0.250
1001,0.070,-0.265
1002,0.035,-0.245
1003,0.030,-0.255
1004,0.055,-0.245
1005,0.040,-0.245
1006,0.040,-0.240
1007,0.050,-0.260
1008,0.040,-0.235
1009,0.030,-0.230
1010,0.040,-0.240
1011,0.050,-0.240
1012,0.040,-0.235
1013,0.035,-0.245
1014,0.050,-0.245
1015,0.040,-0.250
1016,0.020,-0.245
1017,0.025,-0.250
1018,0.020,-0.245
1019,0.030,-0.240
1020,0.030,-0.255
1021,0.030,-0.250
1022,0.010,-0.240
1023,0.035,-0.250
1024,0.020,-0.255
1025,0.020,-0.265
1026,0.015,-0.260
1027,0.025,-0.250
1028,0.025,-0.260
1029,0.030,-0.255
1030,0.015,-0.265
1031,0.015,-0.245
1032,0.030,-0.250
1033,0.025,-0.255
1034,0.020,-0.265
1035,0.035,-0.245
1036,0.030,-0.260
1037,0.035,-0.255
1038,0.010,-0.245
1039,0.010,-0.250
1040,0.020,-0.275
1041,0.010,-0.265
1042,0.010,-0.255
1043,0.045,-0.270
1044,0.000,-0.255
1045,0.000,-0.245
1046,0.000,-0.255
1047,0.000,-0.260
1048,0.005,-0.255
1049,0.005,-0.250
1050,0.015,-0.220
1051,0.040,-0.200
1052,0.040,-0.200
1053,0.060,-0.155
1054,0.060,-0.130
1055,0.040,-0.130
1056,0.040,-0.175
1057,0.005,-0.195
1058,-0.005,-0.200
1059,0.000,-0.190
1060,-0.015,-0.205
1061,-0.005,-0.220
1062,0.005,-0.280
1063,0.000,-0.295
1064,-0.010,-0.300
1065,-0.010,-0.295
1066,0.000,-0.295
1067,0.000,-0.310
1068,0.000,-0.290
1069,0.000,-0.295
1070,0.010,-0.320
1071,0.020,-0.460
1072,0.010,-0.575
1073,0.000,-0.100
1074,0.145,0.855
1075,0.325,2.065
1076,0.445,2.705
1077,0.460,1.695
1078,0.205,0.680
1079,-0.070,0.175
1080,-0.075,-0.055
1081,0.015,-0.175
1082,0.030,-0.275
1083,0.030,-0.320
1084,0.005,-0.350
1085,0.015,-0.385
1086,0.030,-0.390
1087,0.025,-0.400
1088,0.035,-0.415
1089,0.015,-0.395
1090,0.040,-0.395
1091,0.030,-0.400
1092,0.045,-0.390
1093,0.055,-0.395
1094,0.055,-0.395
1095,0.045,-0.385
1096,0.075,-0.380
1097,0.070,-0.385
1098,0.040,-0.385
1099,0.085,-0.380
1100,0.080,-0.365
1101,0.095,-0.370
1102,0.090,-0.360
1103,0.100,-0.350
1104,0.095,-0.340
1105,0.120,-0.345
1106,0.150,-0.330
1107,0.155,-0.310
1108,0.160,-0.305
1109,0.185,-0.275
1110,0.235,-0.275
1111,0.215,-0.265
1112,0.230,-0.240
1113,0.250,-0.220
1114,0.250,-0.210
1115,0.255,-0.165
1116,0.255,-0.155
1117,0.240,-0.130
1118,0.210,-0.115
1119,0.210,-0.095
1120,0.195,-0.090
1121,0.165,-0.065
1122,0.135,-0.085
1123,0.120,-0.090
1124,0.105,-0.110
1125,0.070,-0.125
1126,0.080,-0.135
1127,0.085,-0.155
1128,0.070,-0.155
1129,0.060,-0.185
1130,0.050,-0.190
1131,0.035,-0.220
1132,0.025,-0.210
1133,0.035,-0.220
1134,0.050,-0.235
1135,0.030,-0.225
1136,0.020,-0.240
1137,0.030,-0.220
1138,0.040,-0.240
1139,0.045,-0.240
1140,0.030,-0.230
1141,0.035,-0.225
1142,0.020,-0.225
1143,0.035,-0.245
1144,0.035,-0.225
1145,0.040,-0.225
1146,0.025,-0.230
1147,0.035,-0.230
1148,0.035,-0.240
1149,0.030,-0.225
1150,0.020,-0.215
1151,0.015,-0.220
1152,0.030,-0.205
1153,0.020,-0.245
1154,0.000,-0.230
1155,-0.005,-0.240
1156,0.000,-0.235
1157,0.000,-0.240
1158,0.015,-0.240
1159,0.000,-0.260
1160,0.005,-0.240
1161,0.000,-0.230
1162,0.000,-0.225
1163,0.000,-0.230
1164,0.010,-0.240
1165,0.005,-0.250
1166,0.000,-0.245
1167,-0.005,-0.240
1168,0.000,-0.240
1169,0.000,-0.245
1170,0.000,-0.250
1171,0.000,-0.260
1172,-0.010,-0.260
1173,-0.010,-0.255
1174,-0.015,-0.255
1175,-0.020,-0.270
1176,-0.025,-0.265
1177,-0.015,-0.255
1178,-0.025,-0.240
1179,-0.020,-0.255
1180,-0.010,-0.245
1181,-0.015,-0.255
1182,-0.010,-0.260
1183,-0.025,-0.250
1184,-0.010,-0.255
1185,-0.005,-0.270
1186,-0.010,-0.250
1187,0.000,-0.245
1188,0.015,-0.215
1189,0.025,-0.185
1190,0.035,-0.175
1191,0.030,-0.125
1192,0.040,-0.100
1193,0.040,-0.115
1194,0.005,-0.180
1195,-0.005,-0.200
1196,-0.005,-0.195
1197,-0.010,-0.225
1198,-0.015,-0.215
1199,-0.005,-0.255
1200,-0.015,-0.305
1201,-0.020,-0.310
1202,-0.005,-0.305
1203,-0.005,-0.300
1204,-0.020,-0.305
1205,-0.025,-0.290
1206,-0.025,-0.285
1207,-0.010,-0.290
1208,-0.005,-0.375
1209,-0.010,-0.550
1210,-0.015,-0.325
1211,0.085,0.500
1212,0.255,1.645
1213,0.400,2.580
1214,0.415,1.945
1215,0.275,0.775
1216,-0.030,0.190
1217,-0.140,-0.040
1218,-0.030,-0.170
1219,0.010,-0.275
1220,0.015,-0.310
1221,-0.010,-0.360
1222,-0.005,-0.385
1223,0.000,-0.395
1224,-0.005,-0.405
1225,0.000,-0.400
1226,0.010,-0.415
1227,-0.015,-0.405
1228,-0.005,-0.400
1229,0.000,-0.400
1230,0.000,-0.405
1231,0.000,-0.395
1232,0.005,-0.405
1233,0.025,-0.400
1234,0.030,-0.400
1235,0.035,-0.390
1236,0.015,-0.370
1237,0.055,-0.375
1238,0.060,-0.390
1239,0.055,-0.370
1240,0.085,-0.340
1241,0.085,-0.345
1242,0.095,-0.320
1243,0.115,-0.305
1244,0.125,-0.300
1245,0.145,-0.275
1246,0.170,-0.265
1247,0.175,-0.270
1248,0.190,-0.265
1249,0.190,-0.245
1250,0.185,-0.235
1251,0.210,-0.220
1252,0.200,-0.220
1253,0.195,-0.200
1254,0.180,-0.175
1255,0.150,-0.160
1256,0.130,-0.135
1257,0.140,-0.130
1258,0.085,-0.135
1259,0.085,-0.130
1260,0.070,-0.135
1261,0.050,-0.150
1262,0.045,-0.170
1263,0.030,-0.185
1264,0.005,-0.195
1265,0.035,-0.220
1266,0.015,-0.215
1267,0.015,-0.215
1268,0.005,-0.215
1269,0.025,-0.235
1270,0.015,-0.225
1271,0.005,-0.230
1272,0.025,-0.230
1273,0.015,-0.225
1274,0.025,-0.225
1275,0.030,-0.235
1276,0.005,-0.220
1277,0.015,-0.215
1278,0.020,-0.200
1279,0.025,-0.210
1280,0.005,-0.215
1281,0.015,-0.205
1282,0.020,-0.200
1283,0.015,-0.215
1284,0.010,-0.205
1285,0.005,-0.220
1286,0.010,-0.225
1287,0.005,-0.230
1288,0.000,-0.220
1289,0.000,-0.230
1290,0.000,-0.230
1291,0.005,-0.240
1292,0.000,-0.230
1293,-0.025,-0.230
1294,-0.005,-0.225
1295,0.000,-0.235
1296,-0.020,-0.235
1297,-0.025,-0.240
1298,-0.005,-0.245
1299,0.000,-0.240
1300,-0.020,-0.240
1301,-0.020,-0.240
1302,-0.040,-0.245
1303,-0.025,-0.250
1304,-0.035,-0.240
1305,-0.020,-0.240
1306,-0.040,-0.240
1307,-0.030,-0.260
1308,-0.040,-0.275
1309,-0.045,-0.250
1310,-0.045,-0.255
1311,-0.045,-0.240
1312,-0.040,-0.245
1313,-0.035,-0.240
1314,-0.035,-0.245
1315,-0.045,-0.250
1316,-0.035,-0.230
1317,-0.030,-0.210
1318,-0.020,-0.180
1319,0.000,-0.180
1320,0.010,-0.140
1321,0.025,-0.105
1322,0.005,-0.100
1323,0.000,-0.105
1324,-0.010,-0.170
1325,-0.045,-0.190
1326,-0.035,-0.180
1327,-0.040,-0.175
1328,-0.035,-0.190
1329,-0.025,-0.225
1330,0.000,-0.290
1331,-0.015,-0.285
1332,-0.040,-0.295
1333,-0.050,-0.285
1334,-0.030,-0.290
1335,-0.020,-0.270
1336,-0.025,-0.265
1337,-0.030,-0.270
1338,-0.030,-0.365
1339,-0.015,-0.535
1340,-0.025,-0.280
1341,0.065,0.570
1342,0.260,1.790
1343,0.410,2.780
1344,0.445,2.010
1345,0.245,0.860
1346,-0.045,0.225
1347,-0.125,0.005
1348,-0.030,-0.120
1349,0.000,-0.220
1350,0.005,-0.275
1351,0.000,-0.300
1352,0.000,-0.335
1353,0.000,-0.355
1354,0.000,-0.360
1355,-0.005,-0.350
1356,0.005,-0.355
1357,0.000,-0.340
1358,0.015,-0.360
1359,0.025,-0.365
1360,0.020,-0.365
1361,0.025,-0.360
1362,0.020,-0.360
1363,0.040,-0.370
1364,0.035,-0.350
1365,0.030,-0.355
1366,0.065,-0.350
1367,0.050,-0.345
1368,0.070,-0.325
1369,0.080,-0.325
1370,0.115,-0.330
1371,0.120,-0.295
1372,0.140,-0.300
1373,0.145,-0.290
1374,0.155,-0.255
1375,0.175,-0.240
1376,0.200,-0.230
1377,0.200,-0.215
1378,0.225,-0.215
1379,0.240,-0.200
1380,0.230,-0.180
1381,0.230,-0.155
1382,0.230,-0.135
1383,0.235,-0.115
1384,0.220,-0.090
1385,0.200,-0.065
1386,0.185,-0.055
1387,0.155,-0.055
1388,0.120,-0.060
1389,0.110,-0.055
1390,0.075,-0.070
1391,0.075,-0.085
1392,0.045,-0.100
1393,0.050,-0.125
1394,0.030,-0.140
1395,0.020,-0.160
1396,0.025,-0.170
1397,0.025,-0.165
1398,0.015,-0.190
1399,0.020,-0.195
1400,0.030,-0.195
1401,0.030,-0.185
1402,0.015,-0.185
1403,0.025,-0.190
1404,0.035,-0.190
1405,0.020,-0.185
1406,0.025,-0.185
1407,0.040,-0.185
1408,0.015,-0.195
1409,0.020,-0.175
1410,0.020,-0.185
1411,0.005,-0.195
1412,0.030,-0.175
1413,0.020,-0.200
1414,0.010,-0.200
1415,0.005,-0.180
1416,0.005,-0.190
1417,0.005,-0.215
1418,0.000,-0.205
1419,0.000,-0.185
1420,0.000,-0.205
1421,0.000,-0.190
1422,0.000,-0.190
1423,0.000,-0.180
1424,0.000,-0.200
1425,-0.015,-0.195
1426,-0.015,-0.195
1427,-0.030,-0.215
1428,0.000,-0.195
1429,-0.020,-0.200
1430,-0.010,-0.200
1431,-0.015,-0.195
1432,-0.015,-0.200
1433,-0.015,-0.215
1434,-0.025,-0.210
1435,-0.015,-0.225
1436,-0.030,-0.215
1437,-0.035,-0.225
1438,-0.025,-0.220
1439,-0.025,-0.210
1440,-0.020,-0.225
1441,-0.035,-0.215
1442,-0.035,-0.210
1443,-0.050,-0.215
1444,-0.050,-0.215
1445,-0.030,-0.230
1446,-0.040,-0.220
1447,-0.035,-0.220
1448,-0.030,-0.225
1449,-0.050,-0.200
1450,-0.025,-0.215
1451,-0.030,-0.230
1452,-0.040,-0.195
1453,-0.025,-0.170
1454,0.000,-0.145
1455,0.020,-0.135
1456,0.015,-0.110
1457,0.020,-0.070
1458,0.015,-0.080
1459,0.000,-0.110
1460,-0.020,-0.145
1461,-0.050,-0.155
1462,-0.055,-0.145
1463,-0.045,-0.145
1464,-0.045,-0.175
1465,-0.045,-0.230
1466,-0.040,-0.270
1467,-0.050,-0.265
1468,-0.050,-0.270
1469,-0.065,-0.265
1470,-0.055,-0.270
1471,-0.030,-0.260
1472,-0.035,-0.260
1473,-0.005,-0.285
1474,-0.030,-0.445
1475,-0.010,-0.535
1476,-0.020,0.000
1477,0.130,1.060
1478,0.295,2.255
1479,0.410,2.560
1480,0.375,1.400
1481,0.075,0.545
1482,-0.125,0.125
1483,-0.085,-0.050
1484,-0.005,-0.170
1485,0.005,-0.260
1486,-0.005,-0.305
1487,0.000,-0.335
1488,0.000,-0.350
1489,0.000,-0.355
1490,0.000,-0.350
1491,0.015,-0.355
1492,0.020,-0.380
1493,0.010,-0.360
1494,0.000,-0.355
1495,0.010,-0.360
1496,0.010,-0.345
1497,0.035,-0.355
1498,0.035,-0.350
1499,0.045,-0.335
1500,0.035,-0.335
1501,0.050,-0.335
1502,0.060,-0.330
1503,0.060,-0.330
1504,0.095,-0.300
1505,0.100,-0.300
1506,0.115,-0.285
1507,0.125,-0.285
1508,0.130,-0.280
1509,0.135,-0.255
1510,0.145,-0.270
1511,0.185,-0.255
1512,0.170,-0.225
1513,0.215,-0.200
1514,0.200,-0.200
1515,0.200,-0.180
1516,0.205,-0.190
1517,0.205,-0.135
1518,0.195,-0.130
1519,0.195,-0.095
1520,0.155,-0.080
1521,0.140,-0.055
1522,0.130,-0.050
1523,0.110,-0.050
1524,0.075,-0.050
1525,0.045,-0.065
1526,0.040,-0.100
1527,0.030,-0.120
1528,0.020,-0.130
1529,0.015,-0.150
1530,0.020,-0.165
1531,0.005,-0.165
1532,0.005,-0.180
1533,0.000,-0.165
1534,-0.005,-0.175
1535,0.000,-0.180
1536,-0.010,-0.190
1537,-0.010,-0.205
1538,-0.020,-0.215
1539,-0.015,-0.195
1540,0.000,-0.180
1541,-0.015,-0.200
1542,0.000,-0.210
1543,-0.005,-0.195
1544,-0.005,-0.205
1545,-0.010,-0.190
1546,-0.020,-0.190
1547,-0.015,-0.180
1548,0.000,-0.195
1549,-0.015,-0.190
1550,-0.025,-0.205
1551,-0.020,-0.190
1552,-0.030,-0.205
1553,-0.020,-0.195
1554,-0.040,-0.200
1555,-0.045,-0.180
1556,-0.045,-0.210
1557,-0.030,-0.210
1558,-0.035,-0.200
1559,-0.075,-0.215
1560,-0.050,-0.235
1561,-0.050,-0.225
1562,-0.070,-0.235
1563,-0.055,-0.235
1564,-0.070,-0.235
1565,-0.050,-0.230
1566,-0.060,-0.225
1567,-0.065,-0.225
1568,-0.060,-0.225
1569,-0.055,-0.230
1570,-0.080,-0.235
1571,-0.075,-0.240
1572,-0.090,-0.220
1573,-0.090,-0.240
1574,-0.070,-0.255
1575,-0.090,-0.250
1576,-0.095,-0.235
1577,-0.100,-0.230
1578,-0.075,-0.245
1579,-0.100,-0.250
1580,-0.130,-0.260
1581,-0.115,-0.260
1582,-0.115,-0.245
1583,-0.105,-0.250
1584,-0.115,-0.250
1585,-0.135,-0.230
1586,-0.105,-0.225
1587,-0.100,-0.195
1588,-0.090,-0.185
1589,-0.055,-0.165
1590,-0.050,-0.140
1591,-0.065,-0.105
1592,-0.075,-0.080
1593,-0.095,-0.135
1594,-0.110,-0.175
1595,-0.130,-0.190
1596,-0.135,-0.175
1597,-0.140,-0.180
1598,-0.145,-0.180
1599,-0.125,-0.245
1600,-0.130,-0.260
1601,-0.145,-0.270
1602,-0.150,-0.280
1603,-0.140,-0.295
1604,-0.140,-0.285
1605,-0.135,-0.290
1606,-0.130,-0.290
1607,-0.130,-0.300
1608,-0.145,-0.415
1609,-0.125,-0.525
1610,-0.110,-0.145
1611,0.000,0.735
1612,0.170,1.870
1613,0.280,2.615
1614,0.275,1.775
1615,0.100,0.680
1616,-0.175,0.180
1617,-0.220,-0.010
1618,-0.140,-0.145
1619,-0.100,-0.245
1620,-0.105,-0.300
1621,-0.100,-0.315
1622,-0.110,-0.320
1623,-0.105,-0.340
1624,-0.110,-0.350
1625,-0.090,-0.350
1626,-0.085,-0.355
1627,-0.095,-0.370
1628,-0.090,-0.370
1629,-0.070,-0.350
1630,-0.085,-0.330
1631,-0.070,-0.355
1632,-0.050,-0.355
1633,-0.055,-0.365
1634,-0.055,-0.340
1635,-0.065,-0.340
1636,-0.045,-0.335
1637,-0.040,-0.330
1638,-0.030,-0.330
1639,-0.030,-0.320
1640,-0.020,-0.315
1641,0.000,-0.285
1642,-0.005,-0.275
1643,0.005,-0.290
1644,0.020,-0.270
1645,0.045,-0.265
1646,0.040,-0.265
1647,0.060,-0.250
1648,0.060,-0.220
1649,0.085,-0.235
1650,0.080,-0.215
1651,0.085,-0.205
1652,0.090,-0.200
1653,0.080,-0.190
1654,0.065,-0.170
1655,0.040,-0.155
1656,0.035,-0.145
1657,0.010,-0.120
1658,0.010,-0.100
1659,-0.015,-0.110
1660,-0.025,-0.110
1661,-0.035,-0.120
1662,-0.025,-0.135
1663,-0.050,-0.155
1664,-0.055,-0.165
1665,-0.070,-0.170
1666,-0.050,-0.190
1667,-0.070,-0.195
1668,-0.070,-0.200
1669,-0.065,-0.205
1670,-0.080,-0.215
1671,-0.080,-0.215
1672,-0.085,-0.205
1673,-0.065,-0.215
1674,-0.095,-0.205
1675,-0.060,-0.190
1676,-0.070,-0.200
1677,-0.070,-0.200
1678,-0.055,-0.195
1679,-0.060,-0.195
1680,-0.070,-0.180
1681,-0.075,-0.190
1682,-0.080,-0.185
1683,-0.055,-0.195
1684,-0.070,-0.200
1685,-0.090,-0.175
1686,-0.075,-0.200
1687,-0.100,-0.200
1688,-0.090,-0.200
1689,-0.085,-0.205
1690,-0.100,-0.190
1691,-0.085,-0.210
1692,-0.100,-0.215
1693,-0.115,-0.225
1694,-0.105,-0.230
1695,-0.100,-0.215
1696,-0.110,-0.225
1697,-0.105,-0.225
1698,-0.100,-0.240
1699,-0.115,-0.215
1700,-0.120,-0.225
1701,-0.120,-0.225
1702,-0.135,-0.235
1703,-0.130,-0.230
1704,-0.105,-0.235
1705,-0.125,-0.230
1706,-0.105,-0.220
1707,-0.115,-0.220
1708,-0.120,-0.220
1709,-0.100,-0.225
1710,-0.125,-0.225
1711,-0.095,-0.220
1712,-0.110,-0.230
1713,-0.115,-0.230
1714,-0.110,-0.210
1715,-0.105,-0.190
1716,-0.105,-0.170
1717,-0.085,-0.155
1718,-0.065,-0.135
1719,-0.050,-0.130
1720,-0.055,-0.100
1721,-0.040,-0.080
1722,-0.045,-0.070
1723,-0.075,-0.125
1724,-0.105,-0.140
1725,-0.110,-0.145
1726,-0.120,-0.135
1727,-0.120,-0.140
1728,-0.105,-0.205
1729,-0.095,-0.250
1730,-0.105,-0.250
1731,-0.095,-0.260
1732,-0.110,-0.260
1733,-0.105,-0.265
1734,-0.095,-0.260
1735,-0.080,-0.245
1736,-0.075,-0.235
1737,-0.090,-0.275
1738,-0.085,-0.445
1739,-0.070,-0.465
1740,-0.060,0.120
1741,0.090,1.200
1742,0.275,2.385
1743,0.380,2.645
1744,0.320,1.375
1745,0.015,0.520
1746,-0.200,0.110
1747,-0.145,-0.025
1748,-0.050,-0.155
1749,-0.060,-0.240
1750,-0.060,-0.265
1751,-0.040,-0.300
1752,-0.055,-0.310
1753,-0.050,-0.320
1754,-0.050,-0.305
1755,-0.030,-0.315
1756,-0.040,-0.330
1757,-0.050,-0.320
1758,-0.040,-0.315
1759,-0.040,-0.315
1760,-0.035,-0.315
1761,-0.015,-0.315
1762,-0.020,-0.300
1763,-0.010,-0.290
1764,-0.015,-0.310
1765,0.000,-0.310
1766,0.000,-0.300
1767,-0.005,-0.285
1768,0.015,-0.275
1769,0.035,-0.285
1770,0.045,-0.265
1771,0.055,-0.255
1772,0.055,-0.250
1773,0.085,-0.240
1774,0.095,-0.210
1775,0.105,-0.210
1776,0.120,-0.205
1777,0.140,-0.160
1778,0.150,-0.160
1779,0.140,-0.145
1780,0.155,-0.120
1781,0.155,-0.110
1782,0.155,-0.085
1783,0.145,-0.070
1784,0.125,-0.050
1785,0.100,-0.030
1786,0.095,-0.030
1787,0.085,-0.030
1788,0.040,-0.025
1789,0.030,-0.050
1790,0.000,-0.070
1791,0.000,-0.100
1792,-0.035,-0.110
1793,-0.015,-0.135
1794,-0.025,-0.120
1795,-0.030,-0.155
1796,-0.045,-0.155
1797,-0.020,-0.160
1798,-0.030,-0.180
1799,-0.035,-0.170
1800,-0.040,-0.170
1801,-0.050,-0.170
1802,-0.025,-0.170
1803,-0.050,-0.165
1804,-0.050,-0.185
1805,-0.045,-0.180
1806,-0.040,-0.175
1807,-0.035,-0.180
1808,-0.045,-0.160
1809,-0.025,-0.155
1810,-0.045,-0.170
1811,-0.050,-0.175
1812,-0.055,-0.160
1813,-0.070,-0.170
1814,-0.065,-0.165
1815,-0.060,-0.185
1816,-0.065,-0.170
1817,-0.075,-0.190
1818,-0.070,-0.175
1819,-0.075,-0.175
1820,-0.055,-0.195
1821,-0.080,-0.190
1822,-0.080,-0.210
1823,-0.100,-0.205
1824,-0.095,-0.220
1825,-0.070,-0.220
1826,-0.085,-0.205
1827,-0.095,-0.200
1828,-0.090,-0.205
1829,-0.085,-0.210
1830,-0.100,-0.185
1831,-0.125,-0.210
1832,-0.090,-0.205
1833,-0.105,-0.200
1834,-0.105,-0.205
1835,-0.090,-0.210
1836,-0.100,-0.215
1837,-0.085,-0.210
1838,-0.085,-0.200
1839,-0.090,-0.215
1840,-0.110,-0.205
1841,-0.095,-0.205
1842,-0.085,-0.210
1843,-0.085,-0.195
1844,-0.095,-0.220
1845,-0.085,-0.200
1846,-0.085,-0.200
1847,-0.100,-0.195
1848,-0.090,-0.185
1849,-0.100,-0.175
1850,-0.060,-0.150
1851,-0.045,-0.135
1852,-0.040,-0.120
1853,-0.020,-0.085
1854,-0.040,-0.065
1855,-0.055,-0.100
1856,-0.085,-0.155
1857,-0.085,-0.155
1858,-0.120,-0.155
1859,-0.110,-0.150
1860,-0.105,-0.155
1861,-0.085,-0.220
1862,-0.095,-0.255
1863,-0.095,-0.255
1864,-0.110,-0.260
1865,-0.105,-0.245
1866,-0.100,-0.260
1867,-0.105,-0.245
1868,-0.090,-0.260
1869,-0.090,-0.275
1870,-0.080,-0.430
1871,-0.090,-0.505
1872,-0.065,0.015
1873,0.075,1.085
1874,0.270,2.330
1875,0.375,2.550
1876,0.315,1.250
1877,-0.005,0.455
1878,-0.175,0.090
1879,-0.105,-0.065
1880,-0.045,-0.190
1881,-0.040,-0.250
1882,-0.040,-0.295
1883,-0.050,-0.330
1884,-0.020,-0.330
1885,-0.040,-0.345
1886,-0.025,-0.335
1887,-0.035,-0.360
1888,-0.025,-0.355
1889,-0.020,-0.345
1890,0.000,-0.335
1891,0.000,-0.335
1892,0.005,-0.340
1893,0.010,-0.340
1894,0.015,-0.325
1895,0.015,-0.310
1896,0.030,-0.310
1897,0.030,-0.310
1898,0.035,-0.315
1899,0.045,-0.310
1900,0.060,-0.310
1901,0.050,-0.290
1902,0.065,-0.300
1903,0.065,-0.280
1904,0.100,-0.285
1905,0.120,-0.260
1906,0.110,-0.245
1907,0.130,-0.215
1908,0.150,-0.215
1909,0.160,-0.185
1910,0.175,-0.175
1911,0.185,-0.155
1912,0.170,-0.130
1913,0.170,-0.115
1914,0.170,-0.070
1915,0.160,-0.065
1916,0.150,-0.060
1917,0.120,-0.025
1918,0.110,-0.035
1919,0.075,-0.045
1920,0.045,-0.055
1921,0.035,-0.060
1922,0.000,-0.085
1923,0.000,-0.100
1924,-0.030,-0.140
1925,-0.030,-0.140
1926,-0.040,-0.165
1927,-0.040,-0.170
1928,-0.045,-0.180
1929,-0.030,-0.185
1930,-0.035,-0.205
1931,-0.055,-0.210
1932,-0.065,-0.205
1933,-0.055,-0.195
1934,-0.070,-0.215
1935,-0.055,-0.230
1936,-0.075,-0.210
1937,-0.070,-0.205
1938,-0.065,-0.200
1939,-0.070,-0.200
1940,-0.070,-0.200
1941,-0.075,-0.200
1942,-0.075,-0.205
1943,-0.065,-0.210
1944,-0.075,-0.215
1945,-0.105,-0.215
1946,-0.105,-0.210
1947,-0.115,-0.205
1948,-0.100,-0.210
1949,-0.125,-0.215
1950,-0.120,-0.235
1951,-0.120,-0.210
1952,-0.150,-0.220
1953,-0.125,-0.225
1954,-0.145,-0.235
1955,-0.135,-0.240
1956,-0.155,-0.225
1957,-0.150,-0.240
1958,-0.155,-0.235
1959,-0.150,-0.265
1960,-0.160,-0.255
1961,-0.180,-0.250
1962,-0.150,-0.255
1963,-0.170,-0.260
1964,-0.170,-0.255
1965,-0.170,-0.250
1966,-0.145,-0.270
1967,-0.170,-0.270
1968,-0.180,-0.270
1969,-0.165,-0.255
1970,-0.155,-0.265
1971,-0.170,-0.265
1972,-0.155,-0.260
1973,-0.165,-0.250
1974,-0.160,-0.265
1975,-0.160,-0.275
1976,-0.170,-0.260
1977,-0.180,-0.265
1978,-0.165,-0.275
1979,-0.140,-0.280
1980,-0.160,-0.275
1981,-0.160,-0.280
1982,-0.170,-0.260
1983,-0.160,-0.225
1984,-0.130,-0.185
1985,-0.130,-0.180
1986,-0.105,-0.145
1987,-0.090,-0.130
1988,-0.110,-0.125
1989,-0.125,-0.150
1990,-0.150,-0.200
1991,-0.160,-0.200
1992,-0.190,-0.210
1993,-0.165,-0.190
1994,-0.160,-0.225
1995,-0.150,-0.270
1996,-0.150,-0.300
1997,-0.175,-0.305
1998,-0.175,-0.330
1999,-0.175,-0.330
2000,-0.160,-0.315
2001,-0.170,-0.310
2002,-0.165,-0.290
2003,-0.165,-0.300
2004,-0.155,-0.430
2005,-0.150,-0.550
2006,-0.135,-0.090
2007,-0.015,0.880
2008,0.165,2.075
2009,0.285,2.615
2010,0.280,1.490
2011,0.045,0.520
2012,-0.210,0.085
2013,-0.225,-0.075
2014,-0.135,-0.185
2015,-0.095,-0.265
2016,-0.100,-0.315
2017,-0.100,-0.330
2018,-0.110,-0.365
2019,-0.105,-0.365
2020,-0.100,-0.365
2021,-0.090,-0.375
2022,-0.100,-0.370
2023,-0.085,-0.380
2024,-0.090,-0.360
2025,-0.100,-0.370
2026,-0.080,-0.390
2027,-0.100,-0.380
2028,-0.080,-0.390
2029,-0.070,-0.360
2030,-0.070,-0.365
2031,-0.055,-0.350
2032,-0.070,-0.350
2033,-0.070,-0.365
2034,-0.040,-0.370
2035,-0.040,-0.340
2036,-0.055,-0.340
2037,-0.025,-0.330
2038,-0.030,-0.300
2039,-0.010,-0.300
2040,0.000,-0.285
2041,0.010,-0.295
2042,0.015,-0.270
2043,0.040,-0.270
2044,0.040,-0.265
2045,0.040,-0.250
2046,0.035,-0.235
2047,0.040,-0.220
2048,0.050,-0.200
2049,0.045,-0.195
2050,0.010,-0.180
2051,0.015,-0.165
2052,-0.005,-0.145
2053,-0.020,-0.105
2054,-0.055,-0.130
2055,-0.055,-0.150
2056,-0.070,-0.145
2057,-0.095,-0.160
2058,-0.095,-0.195
2059,-0.090,-0.220
2060,-0.105,-0.220
2061,-0.115,-0.230
2062,-0.110,-0.210
2063,-0.105,-0.230
2064,-0.115,-0.240
2065,-0.120,-0.250
2066,-0.125,-0.230
2067,-0.105,-0.230
2068,-0.100,-0.235
2069,-0.115,-0.260
2070,-0.100,-0.245
2071,-0.095,-0.240
2072,-0.105,-0.240
2073,-0.115,-0.250
2074,-0.110,-0.240
2075,-0.105,-0.255
2076,-0.115,-0.245
2077,-0.130,-0.240
2078,-0.130,-0.260
2079,-0.125,-0.250
2080,-0.145,-0.245
2081,-0.135,-0.270
2082,-0.145,-0.275
2083,-0.150,-0.280
2084,-0.140,-0.260
2085,-0.145,-0.270
2086,-0.140,-0.280
2087,-0.155,-0.280
2088,-0.160,-0.280
2089,-0.150,-0.290
2090,-0.170,-0.285
2091,-0.160,-0.295
2092,-0.145,-0.290
2093,-0.175,-0.300
2094,-0.175,-0.285
2095,-0.155,-0.285
2096,-0.165,-0.300
2097,-0.165,-0.290
2098,-0.150,-0.290
2099,-0.165,-0.295
2100,-0.150,-0.290
2101,-0.155,-0.290
2102,-0.165,-0.300
2103,-0.145,-0.290
2104,-0.160,-0.295
2105,-0.155,-0.285
2106,-0.160,-0.275
2107,-0.155,-0.295
2108,-0.155,-0.275
2109,-0.170,-0.265
2110,-0.160,-0.275
2111,-0.155,-0.270
2112,-0.155,-0.260
2113,-0.140,-0.235
2114,-0.115,-0.235
2115,-0.110,-0.210
2116,-0.085,-0.175
2117,-0.095,-0.140
2118,-0.095,-0.140
2119,-0.125,-0.190
2120,-0.160,-0.210
2121,-0.175,-0.210
2122,-0.165,-0.230
2123,-0.155,-0.220
2124,-0.160,-0.245
2125,-0.145,-0.300
2126,-0.155,-0.320
2127,-0.160,-0.315
2128,-0.185,-0.310
2129,-0.175,-0.325
2130,-0.155,-0.310
2131,-0.180,-0.285
2132,-0.150,-0.305
2133,-0.140,-0.330
2134,-0.150,-0.490
2135,-0.155,-0.530
2136,-0.110,0.045
2137,0.025,1.070
2138,0.220,2.245
2139,0.295,2.600
2140,0.270,1.360
2141,-0.005,0.450
2142,-0.235,0.060
2143,-0.195,-0.085
2144,-0.125,-0.210
2145,-0.115,-0.290
2146,-0.110,-0.325
2147,-0.110,-0.350
2148,-0.110,-0.365
2149,-0.115,-0.370
2150,-0.095,-0.370
2151,-0.095,-0.380
2152,-0.100,-0.370
2153,-0.095,-0.375
2154,-0.115,-0.370
2155,-0.090,-0.365
2156,-0.080,-0.365
2157,-0.070,-0.355
2158,-0.070,-0.375
2159,-0.065,-0.370
2160,-0.075,-0.350
2161,-0.075,-0.345
2162,-0.060,-0.340
2163,-0.050,-0.350
2164,-0.030,-0.330
2165,-0.030,-0.315
2166,-0.015,-0.315
2167,0.000,-0.300
2168,0.005,-0.300
2169,0.005,-0.275
2170,0.035,-0.275
2171,0.030,-0.250
2172,0.035,-0.250
2173,0.070,-0.230
2174,0.080,-0.230
2175,0.090,-0.210
2176,0.085,-0.165
2177,0.085,-0.170
2178,0.070,-0.125
2179,0.065,-0.115
2180,0.045,-0.095
2181,0.030,-0.070
2182,0.020,-0.060
2183,-0.015,-0.075
2184,-0.020,-0.065
2185,-0.045,-0.080
2186,-0.065,-0.100
2187,-0.065,-0.120
2188,-0.080,-0.135
2189,-0.090,-0.160
2190,-0.085,-0.175
2191,-0.105,-0.200
2192,-0.095,-0.200
2193,-0.100,-0.205
2194,-0.085,-0.220
2195,-0.105,-0.200
2196,-0.105,-0.215
2197,-0.110,-0.235
2198,-0.110,-0.225
2199,-0.110,-0.225
2200,-0.090,-0.225
2201,-0.105,-0.225
2202,-0.105,-0.210
2203,-0.105,-0.210
2204,-0.100,-0.210
2205,-0.100,-0.210
2206,-0.115,-0.205
2207,-0.125,-0.215
2208,-0.135,-0.225
2209,-0.135,-0.205
2210,-0.125,-0.225
2211,-0.135,-0.225
2212,-0.135,-0.230
2213,-0.125,-0.220
2214,-0.130,-0.235
2215,-0.130,-0.225
2216,-0.150,-0.225
2217,-0.145,-0.235
2218,-0.135,-0.250
2219,-0.155,-0.245
2220,-0.150,-0.255
2221,-0.160,-0.235
2222,-0.150,-0.240
2223,-0.150,-0.245
2224,-0.125,-0.250
2225,-0.155,-0.250
2226,-0.150,-0.260
2227,-0.155,-0.255
2228,-0.135,-0.245
2229,-0.145,-0.255
2230,-0.155,-0.250
2231,-0.145,-0.240
2232,-0.165,-0.230
2233,-0.145,-0.240
2234,-0.145,-0.240
2235,-0.140,-0.235
2236,-0.160,-0.250
2237,-0.145,-0.240
2238,-0.160,-0.235
2239,-0.150,-0.240
2240,-0.145,-0.250
2241,-0.150,-0.250
2242,-0.140,-0.235
2243,-0.140,-0.240
2244,-0.130,-0.220
2245,-0.120,-0.190
2246,-0.100,-0.170
2247,-0.080,-0.170
2248,-0.095,-0.135
2249,-0.085,-0.100
2250,-0.095,-0.100
2251,-0.110,-0.120
2252,-0.115,-0.155
2253,-0.145,-0.180
2254,-0.125,-0.190
2255,-0.140,-0.185
2256,-0.145,-0.190
2257,-0.120,-0.250
2258,-0.130,-0.265
2259,-0.125,-0.290
2260,-0.140,-0.270
2261,-0.145,-0.290
2262,-0.130,-0.280
2263,-0.130,-0.265
2264,-0.125,-0.270
2265,-0.135,-0.265
2266,-0.115,-0.400
2267,-0.120,-0.545
2268,-0.125,-0.135
2269,0.005,0.805
2270,0.185,2.035
2271,0.315,2.820
2272,0.365,1.880
2273,0.125,0.805
2274,-0.160,0.230
2275,-0.180,0.015
2276,-0.085,-0.115
2277,-0.050,-0.215
2278,-0.045,-0.280
2279,-0.060,-0.285
2280,-0.060,-0.320
2281,-0.055,-0.330
2282,-0.060,-0.335
2283,-0.040,-0.340
2284,-0.040,-0.325
2285,-0.055,-0.340
2286,-0.040,-0.330
2287,-0.035,-0.340
2288,-0.035,-0.340
2289,-0.030,-0.340
2290,-0.035,-0.340
2291,-0.015,-0.340
2292,-0.020,-0.350
2293,-0.010,-0.335
2294,-0.025,-0.330
2295,-0.010,-0.320
2296,0.000,-0.310
2297,0.010,-0.310
2298,0.010,-0.290
2299,0.030,-0.290
2300,0.050,-0.270
2301,0.060,-0.255
2302,0.070,-0.250
2303,0.065,-0.230
2304,0.095,-0.215
2305,0.110,-0.195
2306,0.135,-0.195
2307,0.140,-0.165
2308,0.140,-0.135
2309,0.150,-0.120
2310,0.165,-0.100
2311,0.155,-0.065
2312,0.140,-0.040
2313,0.110,-0.020
2314,0.095,-0.025
2315,0.055,-0.015
2316,0.030,-0.015
2317,0.040,-0.050
2318,0.000,-0.055
2319,-0.010,-0.080
2320,-0.035,-0.100
2321,-0.040,-0.110
2322,-0.030,-0.140
2323,-0.055,-0.155
2324,-0.055,-0.160
2325,-0.055,-0.155
2326,-0.050,-0.170
2327,-0.075,-0.185
2328,-0.065,-0.195
2329,-0.050,-0.180
2330,-0.065,-0.205
2331,-0.070,-0.210
2332,-0.050,-0.190
2333,-0.065,-0.220
2334,-0.075,-0.215
2335,-0.080,-0.210
2336,-0.080,-0.215
2337,-0.070,-0.215
2338,-0.075,-0.215
2339,-0.065,-0.195
2340,-0.090,-0.200
2341,-0.085,-0.195
2342,-0.100,-0.200
2343,-0.095,-0.205
2344,-0.095,-0.225
2345,-0.110,-0.205
2346,-0.095,-0.215
2347,-0.095,-0.210
2348,-0.115,-0.230
2349,-0.115,-0.225
2350,-0.100,-0.220
2351,-0.105,-0.215
2352,-0.125,-0.225
2353,-0.120,-0.225
2354,-0.110,-0.230
2355,-0.115,-0.225
2356,-0.125,-0.230
2357,-0.115,-0.235
2358,-0.115,-0.230
2359,-0.110,-0.240
2360,-0.120,-0.235
2361,-0.115,-0.225
2362,-0.110,-0.240
2363,-0.115,-0.225
2364,-0.105,-0.240
2365,-0.100,-0.235
2366,-0.125,-0.235
2367,-0.115,-0.230
2368,-0.120,-0.235
2369,-0.110,-0.240
2370,-0.115,-0.235
2371,-0.105,-0.230
2372,-0.110,-0.225
2373,-0.100,-0.230
2374,-0.110,-0.220
2375,-0.085,-0.235
2376,-0.125,-0.235
2377,-0.110,-0.230
2378,-0.105,-0.220
2379,-0.105,-0.180
2380,-0.065,-0.175
2381,-0.060,-0.160
2382,-0.040,-0.135
2383,-0.050,-0.100
2384,-0.050,-0.095
2385,-0.050,-0.095
2386,-0.080,-0.145
2387,-0.090,-0.180
2388,-0.090,-0.165
2389,-0.100,-0.175
2390,-0.110,-0.185
2391,-0.100,-0.215
2392,-0.085,-0.260
2393,-0.115,-0.280
2394,-0.110,-0.285
2395,-0.110,-0.265
2396,-0.105,-0.270
2397,-0.095,-0.265
2398,-0.085,-0.250
2399,-0.080,-0.265
2400,-0.080,-0.365
2401,-0.065,-0.500
2402,-0.055,-0.110
2403,0.040,0.820
2404,0.210,1.985
2405,0.335,2.680
2406,0.325,1.655
2407,0.105,0.630
2408,-0.155,0.140
2409,-0.165,-0.005
2410,-0.060,-0.145
2411,-0.040,-0.265
2412,-0.040,-0.290
2413,-0.060,-0.320
2414,-0.060,-0.350
2415,-0.040,-0.350
2416,-0.050,-0.350
2417,-0.050,-0.365
2418,-0.040,-0.365
2419,-0.045,-0.370
2420,-0.050,-0.360
2421,-0.040,-0.370
2422,-0.040,-0.360
2423,-0.050,-0.385
2424,-0.030,-0.365
2425,-0.015,-0.360
2426,-0.050,-0.360
2427,-0.020,-0.360
2428,-0.010,-0.350
2429,-0.005,-0.330
2430,0.005,-0.340
2431,0.005,-0.315
2432,0.020,-0.300
2433,0.050,-0.300
2434,0.040,-0.275
2435,0.065,-0.265
2436,0.085,-0.270
2437,0.080,-0.240
2438,0.100,-0.230
2439,0.120,-0.215
2440,0.125,-0.210
2441,0.130,-0.205
2442,0.125,-0.180
2443,0.120,-0.150
2444,0.115,-0.130
2445,0.115,-0.120
2446,0.085,-0.105
2447,0.045,-0.100
2448,0.045,-0.085
2449,0.015,-0.075
2450,0.015,-0.090
2451,-0.005,-0.110
2452,-0.025,-0.140
2453,-0.030,-0.145
2454,-0.030,-0.150
2455,-0.040,-0.180
2456,-0.040,-0.210
2457,-0.045,-0.220
2458,-0.060,-0.225
2459,-0.060,-0.225
2460,-0.065,-0.235
2461,-0.065,-0.240
2462,-0.040,-0.260
2463,-0.065,-0.250
2464,-0.055,-0.260
2465,-0.070,-0.240
2466,-0.070,-0.260
2467,-0.080,-0.260
2468,-0.065,-0.260
2469,-0.065,-0.250
2470,-0.060,-0.255
2471,-0.080,-0.245
2472,-0.075,-0.235
2473,-0.070,-0.230
2474,-0.075,-0.240
2475,-0.085,-0.250
2476,-0.095,-0.240
2477,-0.095,-0.265
2478,-0.090,-0.285
2479,-0.090,-0.275
2480,-0.085,-0.270
2481,-0.095,-0.255
2482,-0.085,-0.270
2483,-0.100,-0.275
2484,-0.090,-0.275
2485,-0.090,-0.290
2486,-0.100,-0.290
2487,-0.110,-0.280
2488,-0.115,-0.295
2489,-0.090,-0.285
2490,-0.090,-0.285
2491,-0.100,-0.290
2492,-0.090,-0.280
2493,-0.105,-0.295
2494,-0.100,-0.300
2495,-0.105,-0.295
2496,-0.095,-0.290
2497,-0.080,-0.280
2498,-0.090,-0.295
2499,-0.110,-0.315
2500,-0.085,-0.285
2501,-0.100,-0.295
2502,-0.090,-0.300
2503,-0.075,-0.295
2504,-0.085,-0.295
2505,-0.105,-0.285
2506,-0.090,-0.280
2507,-0.085,-0.235
2508,-0.060,-0.225
2509,-0.040,-0.205
2510,-0.035,-0.175
2511,-0.025,-0.155
2512,-0.040,-0.150
2513,-0.060,-0.200
2514,-0.070,-0.235
2515,-0.100,-0.230
2516,-0.080,-0.230
2517,-0.090,-0.220
2518,-0.090,-0.255
2519,-0.065,-0.330
2520,-0.075,-0.325
2521,-0.085,-0.330
2522,-0.105,-0.325
2523,-0.095,-0.310
2524,-0.085,-0.315
2525,-0.080,-0.325
2526,-0.075,-0.305
2527,-0.075,-0.355
2528,-0.070,-0.510
2529,-0.050,-0.480
2530,-0.040,0.140
2531,0.125,1.225
2532,0.290,2.395
2533,0.400,2.560
2534,0.320,1.240
2535,0.030,0.385
2536,-0.145,0.055
2537,-0.110,-0.085
2538,-0.040,-0.180
2539,-0.010,-0.270
2540,-0.020,-0.305
2541,-0.050,-0.335
2542,-0.030,-0.350
2543,-0.045,-0.350
2544,-0.030,-0.365
2545,-0.035,-0.370
2546,-0.020,-0.375
2547,-0.030,-0.375
2548,-0.005,-0.365
2549,-0.010,-0.355
2550,-0.010,-0.355
2551,-0.020,-0.365
2552,-0.005,-0.345
2553,-0.015,-0.355
2554,0.005,-0.330
2555,0.005,-0.350
2556,0.000,-0.335
2557,0.020,-0.345
2558,0.025,-0.330
2559,0.020,-0.325
2560,0.035,-0.315
2561,0.050,-0.290
2562,0.085,-0.290
2563,0.080,-0.275
2564,0.095,-0.250
2565,0.130,-0.230
2566,0.125,-0.235
2567,0.150,-0.210
2568,0.155,-0.190
2569,0.170,-0.175
2570,0.170,-0.170
2571,0.175,-0.145
2572,0.165,-0.120
2573,0.150,-0.100
2574,0.145,-0.070
2575,0.125,-0.055
2576,0.110,-0.055
2577,0.095,-0.045
2578,0.075,-0.055
2579,0.070,-0.080
2580,0.025,-0.085
2581,0.020,-0.120
2582,0.010,-0.150
2583,0.000,-0.140
2584,-0.010,-0.170
2585,-0.015,-0.175
2586,-0.010,-0.200
2587,-0.010,-0.200
2588,-0.010,-0.205
2589,-0.005,-0.215
2590,-0.010,-0.220
2591,-0.025,-0.230
2592,-0.010,-0.230
2593,-0.020,-0.235
2594,-0.010,-0.225
2595,-0.015,-0.210
2596,-0.010,-0.220
2597,-0.010,-0.220
2598,-0.025,-0.210
2599,-0.020,-0.230
2600,-0.025,-0.220
2601,-0.020,-0.230
2602,-0.025,-0.210
2603,-0.035,-0.200
2604,-0.045,-0.220
2605,-0.010,-0.230
2606,-0.050,-0.225
2607,-0.030,-0.220
2608,-0.050,-0.235
2609,-0.060,-0.255
2610,-0.045,-0.245
2611,-0.035,-0.230
2612,-0.065,-0.235
2613,-0.045,-0.255
2614,-0.050,-0.235
2615,-0.055,-0.245
2616,-0.050,-0.240
2617,-0.050,-0.240
2618,-0.050,-0.250
2619,-0.065,-0.240
2620,-0.055,-0.230
2621,-0.045,-0.225
2622,-0.060,-0.235
2623,-0.055,-0.240
2624,-0.050,-0.255
2625,-0.050,-0.235
2626,-0.075,-0.245
2627,-0.040,-0.250
2628,-0.055,-0.245
2629,-0.060,-0.245
2630,-0.050,-0.245
2631,-0.065,-0.255
2632,-0.055,-0.235
2633,-0.045,-0.235
2634,-0.055,-0.240
2635,-0.055,-0.230
2636,-0.050,-0.250
2637,-0.060,-0.250
2638,-0.055,-0.235
2639,-0.050,-0.230
2640,-0.040,-0.215
2641,-0.030,-0.200
2642,-0.040,-0.180
2643,-0.005,-0.170
2644,-0.005,-0.165
2645,0.010,-0.135
2646,0.010,-0.095
2647,0.000,-0.105
2648,-0.025,-0.155
2649,-0.020,-0.170
2650,-0.040,-0.185
2651,-0.050,-0.170
2652,-0.065,-0.165
2653,-0.035,-0.195
2654,-0.035,-0.240
2655,-0.045,-0.265
2656,-0.045,-0.275
2657,-0.050,-0.270
2658,-0.035,-0.260
2659,-0.035,-0.270
2660,-0.030,-0.250
2661,-0.025,-0.240
2662,-0.025,-0.280
2663,-0.010,-0.415
2664,-0.020,-0.530
2665,-0.015,-0.005
2666,0.105,1.025
2667,0.335,2.275
2668,0.420,2.910
2669,0.435,1.715
2670,0.170,0.695
2671,-0.090,0.200
2672,-0.090,0.000
2673,-0.005,-0.135
2674,0.015,-0.220
2675,0.000,-0.285
2676,0.005,-0.295
2677,0.000,-0.330
2678,0.000,-0.350
2679,0.005,-0.350
2680,0.005,-0.365
2681,0.010,-0.370
2682,0.015,-0.360
2683,0.025,-0.375
2684,0.005,-0.365
2685,0.015,-0.360
2686,0.015,-0.370
2687,0.015,-0.380
2688,0.025,-0.365
2689,0.025,-0.350
2690,0.030,-0.345
2691,0.055,-0.350
2692,0.045,-0.345
2693,0.060,-0.340
2694,0.065,-0.320
2695,0.090,-0.320
2696,0.095,-0.305
2697,0.115,-0.295
2698,0.110,-0.290
2699,0.145,-0.265
2700,0.165,-0.255
2701,0.195,-0.245
2702,0.190,-0.220
2703,0.205,-0.195
2704,0.205,-0.170
2705,0.220,-0.160
2706,0.235,-0.135
2707,0.225,-0.125
2708,0.230,-0.110
2709,0.205,-0.075
2710,0.190,-0.070
2711,0.165,-0.060
2712,0.150,-0.045
2713,0.125,-0.065
2714,0.095,-0.075
2715,0.070,-0.085
2716,0.050,-0.100
2717,0.010,-0.140
2718,0.005,-0.150
2719,0.005,-0.175
2720,0.010,-0.185
2721,0.000,-0.190
2722,0.000,-0.215
2723,-0.020,-0.220
2724,-0.005,-0.230
2725,-0.005,-0.245
2726,0.000,-0.245
2727,-0.010,-0.260
2728,-0.025,-0.250
2729,-0.020,-0.245
2730,-0.005,-0.260
2731,-0.015,-0.245
2732,0.000,-0.250
2733,-0.030,-0.260
2734,-0.010,-0.255
2735,-0.030,-0.260
2736,-0.030,-0.245
2737,-0.025,-0.245
2738,-0.035,-0.255
2739,-0.030,-0.250
2740,-0.025,-0.255
2741,-0.030,-0.260
2742,-0.035,-0.245
2743,-0.040,-0.255
2744,-0.035,-0.245
2745,-0.040,-0.245
2746,-0.045,-0.265
2747,-0.050,-0.280
2748,-0.040,-0.260
2749,-0.035,-0.255
2750,-0.045,-0.255
2751,-0.060,-0.280
2752,-0.060,-0.265
2753,-0.070,-0.275
2754,-0.045,-0.265
2755,-0.035,-0.250
2756,-0.060,-0.285
2757,-0.050,-0.265
2758,-0.035,-0.260
2759,-0.060,-0.285
2760,-0.065,-0.270
2761,-0.040,-0.265
2762,-0.050,-0.260
2763,-0.060,-0.265
2764,-0.045,-0.255
2765,-0.045,-0.260
2766,-0.040,-0.260
2767,-0.060,-0.250
2768,-0.045,-0.265
2769,-0.045,-0.270
2770,-0.040,-0.255
2771,-0.035,-0.250
2772,-0.035,-0.255
2773,-0.055,-0.255
2774,-0.040,-0.260
2775,-0.040,-0.260
2776,-0.030,-0.235
2777,-0.035,-0.235
2778,-0.015,-0.205
2779,-0.005,-0.185
2780,0.000,-0.170
2781,0.005,-0.150
2782,0.025,-0.135
2783,0.030,-0.120
2784,0.000,-0.150
2785,0.000,-0.190
2786,-0.030,-0.200
2787,-0.040,-0.175
2788,-0.035,-0.200
2789,-0.035,-0.245
2790,-0.010,-0.300
2791,-0.020,-0.290
2792,-0.045,-0.305
2793,-0.030,-0.280
2794,-0.040,-0.305
2795,-0.020,-0.290
2796,-0.015,-0.270
2797,-0.005,-0.270
2798,-0.015,-0.305
2799,-0.020,-0.480
2800,0.000,-0.420
2801,0.035,0.310
2802,0.200,1.465
2803,0.345,2.520
2804,0.405,2.205
2805,0.295,0.960
2806,-0.005,0.265
2807,-0.130,-0.005
2808,-0.045,-0.135
2809,-0.005,-0.230
2810,0.000,-0.295
2811,0.000,-0.330
2812,0.000,-0.355
2813,-0.015,-0.355
2814,-0.010,-0.365
2815,-0.010,-0.375
2816,0.000,-0.370
2817,-0.005,-0.370
2818,0.000,-0.380
2819,0.000,-0.385
2820,0.010,-0.385
2821,0.020,-0.400
2822,0.015,-0.385
2823,0.015,-0.375
2824,0.015,-0.380
2825,0.020,-0.370
2826,0.020,-0.360
2827,0.025,-0.355
2828,0.050,-0.335
2829,0.055,-0.340
2830,0.080,-0.340
2831,0.085,-0.335
2832,0.090,-0.315
2833,0.120,-0.285
2834,0.095,-0.280
2835,0.115,-0.270
2836,0.155,-0.255
2837,0.175,-0.250
2838,0.165,-0.225
2839,0.170,-0.210
2840,0.185,-0.205
2841,0.170,-0.170
2842,0.165,-0.160
2843,0.170,-0.140
2844,0.145,-0.115
2845,0.160,-0.085
2846,0.140,-0.095
2847,0.100,-0.095
2848,0.095,-0.115
2849,0.075,-0.110
2850,0.025,-0.140
2851,0.040,-0.175
2852,0.020,-0.180
2853,0.005,-0.200
2854,0.000,-0.220
2855,-0.020,-0.235
2856,0.000,-0.225
2857,-0.015,-0.240
2858,-0.015,-0.260
2859,-0.025,-0.260
2860,-0.020,-0.250
2861,-0.030,-0.265
2862,-0.035,-0.275
2863,-0.010,-0.265
2864,-0.020,-0.270
2865,-0.030,-0.280
2866,-0.015,-0.280
2867,-0.020,-0.280
2868,-0.025,-0.250
2869,-0.020,-0.270
2870,-0.040,-0.260
2871,-0.020,-0.250
2872,-0.030,-0.255
2873,-0.030,-0.245
2874,-0.045,-0.265
2875,-0.020,-0.260
2876,-0.030,-0.275
2877,-0.035,-0.260
2878,-0.035,-0.290
2879,-0.055,-0.265
2880,-0.020,-0.270
2881,-0.010,-0.280
2882,-0.025,-0.280
2883,-0.045,-0.290
2884,-0.050,-0.295
2885,-0.035,-0.290
2886,-0.050,-0.295
2887,-0.055,-0.280
2888,-0.050,-0.295
2889,-0.035,-0.280
2890,-0.060,-0.290
2891,-0.065,-0.315
2892,-0.050,-0.295
2893,-0.050,-0.295
2894,-0.045,-0.295
2895,-0.050,-0.300
2896,-0.050,-0.290
2897,-0.045,-0.305
2898,-0.025,-0.305
2899,-0.040,-0.305
2900,-0.040,-0.285
2901,-0.055,-0.295
2902,-0.040,-0.300
2903,-0.030,-0.310
2904,-0.040,-0.310
2905,-0.040,-0.290
2906,-0.035,-0.255
2907,-0.030,-0.240
2908,0.005,-0.225
2909,0.000,-0.215
2910,0.000,-0.170
2911,0.005,-0.125
2912,0.000,-0.130
2913,-0.015,-0.165
2914,-0.035,-0.195
2915,-0.030,-0.195
2916,-0.050,-0.205
2917,-0.045,-0.210
2918,-0.035,-0.245
2919,-0.030,-0.290
2920,-0.025,-0.300
2921,-0.040,-0.300
2922,-0.030,-0.305
2923,-0.005,-0.300
2924,-0.015,-0.295
2925,-0.025,-0.280
2926,-0.025,-0.295
2927,-0.015,-0.310
2928,0.010,-0.505
2929,-0.020,-0.435
2930,0.035,0.250
2931,0.195,1.415
2932,0.375,2.550
2933,0.435,2.345
2934,0.345,1.040
2935,0.030,0.275
2936,-0.125,0.000
2937,-0.050,-0.105
2938,0.010,-0.210
2939,0.025,-0.285
2940,0.010,-0.310
2941,0.000,-0.340
2942,0.010,-0.335
2943,-0.005,-0.385
2944,-0.005,-0.370
2945,-0.015,-0.375
2946,0.005,-0.390
2947,0.000,-0.380
2948,0.020,-0.385
2949,0.010,-0.380
2950,0.020,-0.365
2951,0.030,-0.370
2952,0.040,-0.360
2953,0.030,-0.365
2954,0.035,-0.345
2955,0.060,-0.340
2956,0.035,-0.345
2957,0.055,-0.350
2958,0.065,-0.325
2959,0.075,-0.325
2960,0.095,-0.315
2961,0.080,-0.300
2962,0.110,-0.295
2963,0.130,-0.280
2964,0.140,-0.270
2965,0.175,-0.250
2966,0.175,-0.240
2967,0.200,-0.200
2968,0.210,-0.205
2969,0.195,-0.180
2970,0.220,-0.160
2971,0.225,-0.170
2972,0.205,-0.125
2973,0.190,-0.105
2974,0.180,-0.090
2975,0.135,-0.095
2976,0.120,-0.090
2977,0.105,-0.090
2978,0.075,-0.110
2979,0.060,-0.135
2980,0.040,-0.145
2981,0.040,-0.160
2982,0.015,-0.210
2983,0.015,-0.220
2984,0.005,-0.220
2985,-0.010,-0.235
2986,0.000,-0.250
2987,0.010,-0.260
2988,-0.010,-0.270
2989,0.000,-0.260
2990,0.020,-0.270
2991,0.010,-0.265
2992,0.005,-0.260
2993,-0.005,-0.260
2994,0.000,-0.275
2995,0.005,-0.265
2996,0.005,-0.265
2997,0.000,-0.250
2998,0.000,-0.245
2999,0.000,-0.240
3000,0.000,-0.240
3001,0.000,-0.245
3002,0.000,-0.225
3003,0.000,-0.240
3004,0.005,-0.250
3005,0.000,-0.250
3006,0.000,-0.265
3007,0.000,-0.240
3008,0.000,-0.250
3009,-0.010,-0.260
3010,0.000,-0.270
3011,0.000,-0.255
3012,0.000,-0.250
3013,0.000,-0.265
3014,0.000,-0.255
3015,0.000,-0.275
3016,-0.005,-0.270
3017,-0.005,-0.265
3018,-0.005,-0.260
3019,-0.020,-0.265
3020,-0.015,-0.265
3021,-0.005,-0.255
3022,0.000,-0.270
3023,0.000,-0.280
3024,0.000,-0.270
3025,0.000,-0.260
3026,0.000,-0.280
3027,0.000,-0.250
3028,0.000,-0.255
3029,0.000,-0.255
3030,0.005,-0.255
3031,0.005,-0.260
3032,0.000,-0.240
3033,0.000,-0.255
3034,0.005,-0.255
3035,0.020,-0.265
3036,0.015,-0.255
3037,0.000,-0.260
3038,0.005,-0.260
3039,0.005,-0.225
3040,0.010,-0.220
3041,0.025,-0.180
3042,0.045,-0.175
3043,0.060,-0.150
3044,0.075,-0.120
3045,0.070,-0.100
3046,0.055,-0.135
3047,0.015,-0.175
3048,0.005,-0.165
3049,0.015,-0.160
3050,0.015,-0.175
3051,0.015,-0.180
3052,0.045,-0.250
3053,0.020,-0.285
3054,0.015,-0.250
3055,0.015,-0.270
3056,0.020,-0.260
3057,0.025,-0.255
3058,0.020,-0.245
3059,0.020,-0.255
3060,0.035,-0.305
3061,0.025,-0.460
3062,0.020,-0.495
3063,0.035,0.160
3064,0.220,1.290
3065,0.390,2.520
3066,0.510,2.530
3067,0.425,1.190
3068,0.085,0.395
3069,-0.100,0.070
3070,0.000,-0.080
3071,0.050,-0.205
3072,0.055,-0.250
3073,0.030,-0.320
3074,0.040,-0.355
3075,0.050,-0.365
3076,0.060,-0.375
3077,0.050,-0.385
3078,0.050,-0.375
3079,0.070,-0.380
3080,0.065,-0.375
3081,0.065,-0.375
3082,0.055,-0.370
3083,0.085,-0.380
3084,0.080,-0.370
3085,0.080,-0.360
3086,0.075,-0.370
3087,0.085,-0.370
3088,0.095,-0.365
3089,0.100,-0.350
3090,0.115,-0.365
3091,0.115,-0.345
3092,0.130,-0.355
3093,0.165,-0.345
3094,0.155,-0.310
3095,0.185,-0.305
3096,0.185,-0.290
3097,0.210,-0.260
3098,0.220,-0.250
3099,0.240,-0.225
3100,0.240,-0.210
3101,0.275,-0.205
3102,0.275,-0.180
3103,0.285,-0.160
3104,0.265,-0.125
3105,0.270,-0.090
3106,0.260,-0.095
3107,0.240,-0.060
3108,0.210,-0.045
3109,0.185,-0.060
3110,0.175,-0.055
3111,0.150,-0.060
3112,0.125,-0.080
3113,0.095,-0.110
3114,0.090,-0.155
3115,0.050,-0.145
3116,0.040,-0.165
3117,0.045,-0.200
3118,0.050,-0.190
3119,0.040,-0.220
3120,0.035,-0.215
3121,0.025,-0.235
3122,0.035,-0.225
3123,0.035,-0.235
3124,0.020,-0.220
3125,0.035,-0.245
3126,0.015,-0.240
3127,0.025,-0.255
3128,0.035,-0.250
3129,0.025,-0.255
3130,0.045,-0.240
3131,0.045,-0.240
3132,0.040,-0.225
3133,0.010,-0.245
3134,0.025,-0.245
3135,0.030,-0.230
3136,0.030,-0.245
3137,0.015,-0.245
3138,0.005,-0.235
3139,0.015,-0.245
3140,0.015,-0.220
3141,0.015,-0.245
3142,0.005,-0.255
3143,0.000,-0.235
3144,0.000,-0.255
3145,0.015,-0.260
3146,0.000,-0.250
3147,0.000,-0.255
3148,0.000,-0.270
3149,0.010,-0.260
3150,0.000,-0.265
3151,0.005,-0.265
3152,0.000,-0.270
3153,-0.020,-0.275
3154,-0.010,-0.250
3155,-0.005,-0.260
3156,0.005,-0.250
3157,-0.005,-0.265
3158,-0.005,-0.280
3159,-0.010,-0.270
3160,0.000,-0.270
3161,0.000,-0.280
3162,0.000,-0.280
3163,-0.015,-0.260
3164,-0.005,-0.275
3165,0.000,-0.260
3166,-0.015,-0.260
3167,-0.005,-0.270
3168,0.000,-0.265
3169,-0.005,-0.265
3170,-0.005,-0.260
3171,-0.005,-0.260
3172,0.005,-0.265
3173,0.000,-0.265
3174,0.005,-0.265
3175,0.005,-0.260
3176,0.000,-0.240
3177,0.015,-0.245
3178,0.035,-0.220
3179,0.030,-0.185
3180,0.050,-0.165
3181,0.070,-0.120
3182,0.085,-0.110
3183,0.055,-0.105
3184,0.035,-0.145
3185,0.015,-0.175
3186,0.000,-0.165
3187,0.000,-0.170
3188,-0.015,-0.195
3189,0.000,-0.215
3190,0.005,-0.275
3191,0.020,-0.275
3192,-0.005,-0.275
3193,0.000,-0.275
3194,0.000,-0.280
3195,0.000,-0.290
3196,-0.015,-0.285
3197,0.000,-0.295
3198,0.000,-0.300
3199,0.015,-0.450
3200,0.000,-0.495
3201,0.020,0.085
3202,0.155,1.140
3203,0.350,2.250
3204,0.425,2.560
3205,0.400,1.350
3206,0.135,0.445
3207,-0.075,0.095
3208,-0.075,-0.075
3209,0.010,-0.185
3210,0.020,-0.285
3211,0.010,-0.320
3212,0.005,-0.350
3213,0.015,-0.355
3214,0.000,-0.380
3215,0.010,-0.385
3216,0.000,-0.370
3217,0.015,-0.380
3218,0.015,-0.380
3219,0.025,-0.410
3220,0.040,-0.400
3221,0.010,-0.385
3222,0.020,-0.385
3223,0.015,-0.400
3224,0.015,-0.395
3225,0.040,-0.390
3226,0.020,-0.385
3227,0.045,-0.380
3228,0.035,-0.370
3229,0.045,-0.390
3230,0.060,-0.360
3231,0.085,-0.365
3232,0.085,-0.375
3233,0.090,-0.345
3234,0.115,-0.345
3235,0.120,-0.330
3236,0.145,-0.320
3237,0.145,-0.300
3238,0.155,-0.295
3239,0.170,-0.280
3240,0.170,-0.260
3241,0.175,-0.255
3242,0.185,-0.225
3243,0.180,-0.230
3244,0.170,-0.190
3245,0.155,-0.205
3246,0.145,-0.190
3247,0.140,-0.150
3248,0.090,-0.145
3249,0.060,-0.155
3250,0.070,-0.150
3251,0.025,-0.170
3252,0.035,-0.195
3253,0.005,-0.205
3254,-0.005,-0.225
3255,0.000,-0.260
3256,-0.020,-0.275
3257,-0.015,-0.285
3258,-0.020,-0.290
3259,-0.035,-0.295
3260,-0.010,-0.300
3261,-0.020,-0.300
3262,-0.015,-0.320
3263,-0.010,-0.315
3264,-0.015,-0.300
3265,-0.015,-0.310
3266,-0.020,-0.310
3267,0.000,-0.325
3268,0.000,-0.300
3269,-0.010,-0.305
3270,0.000,-0.305
3271,-0.005,-0.315
3272,-0.015,-0.300
3273,-0.020,-0.310
3274,-0.030,-0.300
3275,-0.010,-0.315
3276,-0.025,-0.315
3277,-0.025,-0.320
3278,-0.030,-0.315
3279,-0.025,-0.320
3280,-0.020,-0.325
3281,-0.030,-0.305
3282,-0.030,-0.335
3283,-0.030,-0.355
3284,-0.035,-0.340
3285,-0.040,-0.330
3286,-0.045,-0.330
3287,-0.040,-0.310
3288,-0.020,-0.320
3289,-0.040,-0.320
3290,-0.040,-0.315
3291,-0.035,-0.320
3292,-0.025,-0.315
3293,-0.030,-0.330
3294,-0.040,-0.330
3295,-0.045,-0.330
3296,-0.045,-0.315
3297,-0.040,-0.320
3298,-0.015,-0.310
3299,-0.020,-0.320
3300,-0.015,-0.310
3301,-0.020,-0.315
3302,-0.030,-0.300
3303,-0.025,-0.295
3304,-0.020,-0.290
3305,-0.015,-0.295
3306,0.000,-0.290
3307,-0.005,-0.295
3308,-0.010,-0.285
3309,-0.020,-0.295
3310,-0.015,-0.295
3311,-0.015,-0.275
3312,0.000,-0.245
3313,0.020,-0.215
3314,0.030,-0.205
3315,0.040,-0.205
3316,0.050,-0.180
3317,0.055,-0.150
3318,0.030,-0.150
3319,0.020,-0.190
3320,-0.005,-0.220
3321,-0.010,-0.220
3322,-0.015,-0.225
3323,-0.010,-0.240
3324,0.005,-0.265
3325,0.020,-0.320
3326,-0.010,-0.315
3327,-0.015,-0.330
3328,-0.040,-0.320
3329,-0.015,-0.320
3330,-0.030,-0.310
3331,-0.020,-0.305
3332,-0.020,-0.330
3333,-0.020,-0.460
3334,-0.020,-0.570
3335,0.000,-0.110
3336,0.115,0.890
3337,0.300,2.150
3338,0.435,2.645
3339,0.420,1.475
3340,0.165,0.515
3341,-0.100,0.080
3342,-0.070,-0.085
3343,0.000,-0.200
3344,0.040,-0.285
3345,0.000,-0.340
3346,0.000,-0.365
3347,0.010,-0.370
3348,0.005,-0.380
3349,-0.005,-0.400
3350,-0.005,-0.400
3351,0.010,-0.400
3352,0.015,-0.395
3353,0.005,-0.400
3354,0.000,-0.405
3355,0.025,-0.410
3356,0.015,-0.400
3357,0.025,-0.400
3358,0.040,-0.385
3359,0.040,-0.400
3360,0.045,-0.410
3361,0.040,-0.400
3362,0.080,-0.380
3363,0.070,-0.375
3364,0.085,-0.385
3365,0.090,-0.370
3366,0.075,-0.365
3367,0.095,-0.365
3368,0.125,-0.340
3369,0.140,-0.340
3370,0.140,-0.325
3371,0.165,-0.305
3372,0.185,-0.305
3373,0.175,-0.280
3374,0.190,-0.265
3375,0.185,-0.250
3376,0.190,-0.230
3377,0.170,-0.195
3378,0.195,-0.180
3379,0.145,-0.165
3380,0.130,-0.140
3381,0.105,-0.135
3382,0.080,-0.140
3383,0.070,-0.140
3384,0.040,-0.160
3385,0.035,-0.185
3386,0.000,-0.200
3387,0.010,-0.220
3388,0.000,-0.220
3389,-0.005,-0.250
3390,0.000,-0.240
3391,0.000,-0.265
3392,-0.025,-0.280
3393,-0.005,-0.270
3394,0.000,-0.280
3395,0.000,-0.285
3396,-0.020,-0.290
3397,-0.010,-0.300
3398,0.000,-0.290
3399,-0.005,-0.290
3400,-0.005,-0.280
3401,-0.005,-0.290
3402,0.000,-0.275
3403,0.000,-0.290
3404,0.000,-0.280
3405,0.000,-0.270
3406,-0.010,-0.280
3407,0.000,-0.290
3408,-0.010,-0.290
3409,-0.010,-0.295
3410,-0.020,-0.285
3411,-0.015,-0.285
3412,0.000,-0.300
3413,-0.010,-0.310
3414,-0.020,-0.295
3415,-0.005,-0.305
3416,-0.025,-0.290
3417,-0.020,-0.285
3418,-0.025,-0.290
3419,-0.015,-0.295
3420,-0.025,-0.285
3421,-0.025,-0.275
3422,-0.020,-0.290
3423,-0.025,-0.285
3424,-0.010,-0.295
3425,-0.020,-0.290
3426,-0.030,-0.280
3427,-0.025,-0.280
3428,-0.025,-0.280
3429,-0.020,-0.280
3430,-0.040,-0.295
3431,-0.015,-0.290
3432,-0.035,-0.280
3433,-0.030,-0.285
3434,-0.020,-0.275
3435,-0.010,-0.245
3436,0.000,-0.260
3437,-0.010,-0.255
3438,-0.010,-0.250
3439,-0.020,-0.260
3440,-0.005,-0.265
3441,-0.020,-0.245
3442,-0.010,-0.250
3443,-0.020,-0.250
3444,-0.010,-0.240
3445,0.000,-0.245
3446,-0.010,-0.260
3447,-0.010,-0.240
3448,0.000,-0.220
3449,0.000,-0.205
3450,0.000,-0.195
3451,0.030,-0.190
3452,0.035,-0.150
3453,0.065,-0.120
3454,0.035,-0.105
3455,0.020,-0.120
3456,0.010,-0.180
3457,-0.025,-0.165
3458,-0.020,-0.155
3459,-0.035,-0.175
3460,-0.015,-0.185
3461,-0.020,-0.235
3462,-0.005,-0.275
3463,-0.025,-0.290
3464,-0.025,-0.275
3465,-0.035,-0.270
3466,-0.035,-0.280
3467,-0.015,-0.275
3468,-0.030,-0.290
3469,-0.035,-0.300
3470,-0.005,-0.450
3471,-0.010,-0.505
3472,-0.010,0.085
3473,0.130,1.165
3474,0.315,2.360
3475,0.420,2.700
3476,0.430,1.365
3477,0.100,0.530
3478,-0.120,0.120
3479,-0.085,-0.050
3480,0.000,-0.180
3481,0.010,-0.260
3482,-0.005,-0.290
3483,-0.015,-0.330
3484,0.000,-0.345
3485,-0.010,-0.370
3486,0.000,-0.365
3487,0.000,-0.380
3488,0.005,-0.375
3489,0.015,-0.385
3490,0.010,-0.390
3491,0.005,-0.375
3492,0.005,-0.390
3493,0.010,-0.380
3494,0.005,-0.375
3495,0.035,-0.375
3496,0.030,-0.375
3497,0.040,-0.370
3498,0.030,-0.370
3499,0.045,-0.370
3500,0.040,-0.360
3501,0.045,-0.345
3502,0.070,-0.350
3503,0.090,-0.360
3504,0.095,-0.345
3505,0.100,-0.330
3506,0.120,-0.320
3507,0.130,-0.305
3508,0.170,-0.300
3509,0.170,-0.260
3510,0.160,-0.270
3511,0.185,-0.250
3512,0.180,-0.230
3513,0.165,-0.210
3514,0.190,-0.200
3515,0.175,-0.165
3516,0.160,-0.145
3517,0.135,-0.145
3518,0.120,-0.110
3519,0.080,-0.105
3520,0.065,-0.125
3521,0.050,-0.120
3522,0.030,-0.145
3523,0.025,-0.180
3524,-0.010,-0.185
3525,-0.010,-0.205
3526,-0.020,-0.200
3527,-0.020,-0.225
3528,-0.015,-0.235
3529,-0.040,-0.240
3530,-0.030,-0.245
3531,-0.030,-0.260
3532,-0.030,-0.260
3533,-0.020,-0.275
3534,-0.025,-0.275
3535,-0.015,-0.265
3536,-0.030,-0.280
3537,-0.025,-0.270
3538,-0.030,-0.280
3539,-0.025,-0.265
3540,-0.020,-0.285
3541,-0.025,-0.270
3542,-0.015,-0.275
3543,-0.025,-0.260
3544,-0.050,-0.260
3545,-0.025,-0.280
3546,-0.030,-0.270
3547,-0.040,-0.265
3548,-0.065,-0.280
3549,-0.045,-0.280
3550,-0.055,-0.270
3551,-0.050,-0.265
3552,-0.060,-0.270
3553,-0.050,-0.280
3554,-0.065,-0.265
3555,-0.055,-0.280
3556,-0.060,-0.290
3557,-0.060,-0.285
3558,-0.060,-0.280
3559,-0.070,-0.270
3560,-0.065,-0.265
3561,-0.060,-0.280
3562,-0.065,-0.275
3563,-0.080,-0.280
3564,-0.070,-0.290
3565,-0.085,-0.265
3566,-0.060,-0.260
3567,-0.050,-0.285
3568,-0.065,-0.265
3569,-0.060,-0.260
3570,-0.065,-0.255
3571,-0.065,-0.265
3572,-0.055,-0.270
3573,-0.060,-0.265
3574,-0.055,-0.265
3575,-0.055,-0.270
3576,-0.050,-0.260
3577,-0.060,-0.260
3578,-0.055,-0.260
3579,-0.065,-0.250
3580,-0.065,-0.255
3581,-0.050,-0.245
3582,-0.070,-0.235
3583,-0.055,-0.245
3584,-0.080,-0.265
3585,-0.085,-0.230
3586,-0.075,-0.230
3587,-0.055,-0.190
3588,-0.040,-0.190
3589,-0.025,-0.170
3590,-0.015,-0.145
3591,-0.010,-0.115
3592,-0.035,-0.105
3593,-0.025,-0.115
3594,-0.045,-0.160
3595,-0.065,-0.180
3596,-0.060,-0.170
3597,-0.080,-0.190
3598,-0.065,-0.195
3599,-0.060,-0.250
3600,-0.075,-0.290
3601,-0.060,-0.280
3602,-0.070,-0.270
3603,-0.065,-0.280
3604,-0.060,-0.290
3605,-0.060,-0.260
3606,-0.085,-0.290
3607,-0.070,-0.300
3608,-0.070,-0.440
3609,-0.055,-0.475
3610,-0.040,0.055
3611,0.080,1.070
3612,0.275,2.200
3613,0.365,2.550
3614,0.335,1.365
3615,0.095,0.440
3616,-0.135,0.065
3617,-0.135,-0.065
3618,-0.065,-0.205
3619,-0.040,-0.270
3620,-0.025,-0.355
3621,-0.040,-0.355
3622,-0.050,-0.380
3623,-0.050,-0.380
3624,-0.045,-0.385
3625,-0.055,-0.385
3626,-0.020,-0.385
3627,-0.045,-0.405
3628,-0.035,-0.405
3629,-0.050,-0.400
3630,-0.055,-0.395
3631,-0.060,-0.400
3632,-0.040,-0.410
3633,-0.035,-0.400
3634,-0.035,-0.400
3635,-0.030,-0.400
3636,-0.035,-0.385
3637,-0.025,-0.385
3638,-0.030,-0.365
3639,0.000,-0.375
3640,-0.015,-0.365
3641,0.000,-0.370
3642,0.020,-0.355
3643,0.030,-0.335
3644,0.030,-0.330
3645,0.040,-0.300
3646,0.070,-0.305
3647,0.065,-0.305
3648,0.100,-0.295
3649,0.110,-0.290
3650,0.115,-0.270
3651,0.100,-0.265
3652,0.100,-0.250
3653,0.075,-0.225
3654,0.075,-0.210
3655,0.080,-0.175
3656,0.040,-0.170
3657,0.020,-0.155
3658,0.000,-0.155
3659,-0.015,-0.160
3660,-0.025,-0.175
3661,-0.030,-0.175
3662,-0.035,-0.210
3663,-0.060,-0.230
3664,-0.050,-0.235
3665,-0.055,-0.250
3666,-0.065,-0.240
3667,-0.060,-0.265
3668,-0.060,-0.265
3669,-0.090,-0.270
3670,-0.075,-0.285
3671,-0.070,-0.265
3672,-0.095,-0.275
3673,-0.070,-0.260
3674,-0.060,-0.275
3675,-0.050,-0.255
3676,-0.050,-0.260
3677,-0.060,-0.250
3678,-0.075,-0.250
3679,-0.065,-0.245
3680,-0.075,-0.255
3681,-0.070,-0.245
3682,-0.070,-0.245
3683,-0.080,-0.245
3684,-0.080,-0.255
3685,-0.085,-0.265
3686,-0.085,-0.265
3687,-0.085,-0.255
3688,-0.075,-0.260
3689,-0.075,-0.255
3690,-0.080,-0.240
3691,-0.080,-0.255
3692,-0.080,-0.265
3693,-0.105,-0.270
3694,-0.075,-0.250
3695,-0.080,-0.245
3696,-0.085,-0.260
3697,-0.085,-0.240
3698,-0.080,-0.245
3699,-0.105,-0.245
3700,-0.080,-0.250
3701,-0.085,-0.255
3702,-0.080,-0.250
3703,-0.075,-0.250
3704,-0.080,-0.255
3705,-0.095,-0.260
3706,-0.085,-0.245
3707,-0.080,-0.260
3708,-0.080,-0.245
3709,-0.070,-0.250
3710,-0.090,-0.250
3711,-0.100,-0.255
3712,-0.080,-0.235
3713,-0.105,-0.240
3714,-0.090,-0.240
3715,-0.075,-0.235
3716,-0.095,-0.245
3717,-0.085,-0.240
3718,-0.090,-0.230
3719,-0.085,-0.230
3720,-0.095,-0.220
3721,-0.095,-0.215
3722,-0.090,-0.185
3723,-0.070,-0.160
3724,-0.055,-0.155
3725,-0.030,-0.125
3726,-0.035,-0.085
3727,-0.040,-0.090
3728,-0.055,-0.100
3729,-0.055,-0.145
3730,-0.080,-0.160
3731,-0.090,-0.150
3732,-0.120,-0.155
3733,-0.135,-0.175
3734,-0.090,-0.205
3735,-0.085,-0.245
3736,-0.095,-0.265
3737,-0.095,-0.255
3738,-0.095,-0.245
3739,-0.110,-0.260
3740,-0.110,-0.270
3741,-0.085,-0.255
3742,-0.105,-0.250
3743,-0.090,-0.320
3744,-0.085,-0.500
3745,-0.105,-0.355
3746,-0.040,0.400
3747,0.150,1.520
3748,0.295,2.605
3749,0.385,2.335
3750,0.310,1.070
3751,-0.025,0.345
3752,-0.195,0.055
3753,-0.120,-0.090
3754,-0.065,-0.200
3755,-0.065,-0.255
3756,-0.060,-0.315
3757,-0.080,-0.315
3758,-0.075,-0.345
3759,-0.090,-0.360
3760,-0.075,-0.355
3761,-0.085,-0.350
3762,-0.080,-0.360
3763,-0.075,-0.360
3764,-0.065,-0.370
3765,-0.085,-0.360
3766,-0.080,-0.375
3767,-0.065,-0.375
3768,-0.045,-0.355
3769,-0.045,-0.350
3770,-0.045,-0.355
3771,-0.050,-0.355
3772,-0.065,-0.375
3773,-0.035,-0.355
3774,-0.045,-0.340
3775,-0.020,-0.340
3776,-0.025,-0.325
3777,0.000,-0.320
3778,0.025,-0.315
3779,0.045,-0.315
3780,0.045,-0.290
3781,0.050,-0.275
3782,0.080,-0.260
3783,0.095,-0.270
3784,0.110,-0.250
3785,0.095,-0.235
3786,0.105,-0.225
3787,0.105,-0.195
3788,0.090,-0.175
3789,0.090,-0.145
3790,0.080,-0.130
3791,0.050,-0.130
3792,0.040,-0.100
3793,0.025,-0.090
3794,0.000,-0.085
3795,-0.010,-0.105
3796,-0.045,-0.110
3797,-0.045,-0.110
3798,-0.090,-0.115
3799,-0.080,-0.155
3800,-0.080,-0.170
3801,-0.090,-0.185
3802,-0.110,-0.195
3803,-0.095,-0.200
3804,-0.090,-0.220
3805,-0.085,-0.230
3806,-0.080,-0.225
3807,-0.100,-0.230
3808,-0.105,-0.225
3809,-0.090,-0.225
3810,-0.100,-0.210
3811,-0.100,-0.225
3812,-0.075,-0.230
3813,-0.100,-0.220
3814,-0.080,-0.210
3815,-0.080,-0.225
3816,-0.095,-0.210
3817,-0.090,-0.205
3818,-0.085,-0.200
3819,-0.080,-0.195
3820,-0.080,-0.210
3821,-0.105,-0.205
3822,-0.100,-0.200
3823,-0.100,-0.200
3824,-0.095,-0.205
3825,-0.080,-0.200
3826,-0.090,-0.210
3827,-0.085,-0.205
3828,-0.085,-0.200
3829,-0.070,-0.210
3830,-0.090,-0.210
3831,-0.075,-0.200
3832,-0.075,-0.205
3833,-0.090,-0.190
3834,-0.090,-0.215
3835,-0.085,-0.205
3836,-0.090,-0.195
3837,-0.090,-0.195
3838,-0.090,-0.205
3839,-0.100,-0.195
3840,-0.100,-0.210
3841,-0.105,-0.200
3842,-0.095,-0.210
3843,-0.075,-0.200
3844,-0.080,-0.190
3845,-0.095,-0.200
3846,-0.090,-0.195
3847,-0.095,-0.210
3848,-0.090,-0.200
3849,-0.090,-0.195
3850,-0.100,-0.195
3851,-0.085,-0.185
3852,-0.100,-0.190
3853,-0.080,-0.200
3854,-0.095,-0.190
3855,-0.100,-0.200
3856,-0.085,-0.185
3857,-0.080,-0.175
3858,-0.075,-0.185
3859,-0.095,-0.195
3860,-0.065,-0.185
3861,-0.070,-0.175
3862,-0.070,-0.150
3863,-0.050,-0.125
3864,-0.030,-0.110
3865,-0.015,-0.080
3866,-0.020,-0.050
3867,-0.045,-0.055
3868,-0.055,-0.090
3869,-0.095,-0.120
3870,-0.090,-0.135
3871,-0.095,-0.125
3872,-0.110,-0.130
3873,-0.100,-0.160
3874,-0.090,-0.210
3875,-0.090,-0.225
3876,-0.110,-0.240
3877,-0.100,-0.230
3878,-0.085,-0.240
3879,-0.095,-0.230
3880,-0.105,-0.210
3881,-0.100,-0.220
3882,-0.090,-0.275
3883,-0.085,-0.485
3884,-0.085,-0.430
3885,-0.060,0.290
3886,0.100,1.440
3887,0.280,2.580
3888,0.365,2.345
3889,0.270,1.120
3890,-0.060,0.385
3891,-0.215,0.065
3892,-0.130,-0.090
3893,-0.075,-0.205
3894,-0.070,-0.275
3895,-0.085,-0.305
3896,-0.080,-0.315
3897,-0.085,-0.345
3898,-0.090,-0.335
3899,-0.080,-0.360
3900,-0.085,-0.360
3901,-0.090,-0.355
3902,-0.090,-0.350
3903,-0.085,-0.370
3904,-0.055,-0.370
3905,-0.060,-0.355
3906,-0.075,-0.365
3907,-0.055,-0.355
3908,-0.050,-0.390
3909,-0.060,-0.375
3910,-0.045,-0.345
3911,-0.025,-0.340
3912,-0.005,-0.340
3913,-0.015,-0.340
3914,0.000,-0.325
3915,0.000,-0.320
3916,0.025,-0.320
3917,0.030,-0.300
3918,0.035,-0.310
3919,0.055,-0.285
3920,0.085,-0.280
3921,0.085,-0.255
3922,0.115,-0.260
3923,0.120,-0.240
3924,0.135,-0.220
3925,0.120,-0.205
3926,0.120,-0.185
3927,0.120,-0.180
3928,0.110,-0.140
3929,0.105,-0.110
3930,0.065,-0.110
3931,0.040,-0.080
3932,0.005,-0.095
3933,0.000,-0.085
3934,-0.030,-0.105
3935,-0.030,-0.110
3936,-0.065,-0.135
3937,-0.060,-0.155
3938,-0.075,-0.175
3939,-0.075,-0.200
3940,-0.085,-0.200
3941,-0.070,-0.200
3942,-0.095,-0.215
3943,-0.080,-0.210
3944,-0.080,-0.220
3945,-0.100,-0.230
3946,-0.075,-0.215
3947,-0.075,-0.225
3948,-0.065,-0.210
3949,-0.065,-0.205
3950,-0.060,-0.205
3951,-0.075,-0.210
3952,-0.070,-0.215
3953,-0.065,-0.200
3954,-0.065,-0.195
3955,-0.060,-0.200
3956,-0.070,-0.210
3957,-0.060,-0.200
3958,-0.065,-0.205
3959,-0.065,-0.205
3960,-0.070,-0.200
3961,-0.075,-0.205
3962,-0.075,-0.210
3963,-0.070,-0.200
3964,-0.065,-0.215
3965,-0.070,-0.215
3966,-0.095,-0.200
3967,-0.080,-0.200
3968,-0.075,-0.215
3969,-0.075,-0.205
3970,-0.065,-0.200
3971,-0.085,-0.210
3972,-0.095,-0.220
3973,-0.095,-0.220
3974,-0.100,-0.235
3975,-0.100,-0.215
3976,-0.100,-0.210
3977,-0.080,-0.220
3978,-0.090,-0.220
3979,-0.105,-0.220
3980,-0.100,-0.210
3981,-0.085,-0.220
3982,-0.095,-0.210
3983,-0.100,-0.215
3984,-0.100,-0.215
3985,-0.095,-0.205
3986,-0.090,-0.225
3987,-0.095,-0.215
3988,-0.100,-0.195
3989,-0.090,-0.210
3990,-0.070,-0.205
3991,-0.115,-0.220
3992,-0.095,-0.205
3993,-0.105,-0.215
3994,-0.090,-0.205
3995,-0.090,-0.215
3996,-0.090,-0.210
3997,-0.075,-0.200
3998,-0.085,-0.205
3999,-0.090,-0.180
4000,-0.090,-0.175
4001,-0.055,-0.155
4002,-0.050,-0.140
4003,-0.025,-0.105
4004,-0.040,-0.075
4005,-0.040,-0.055
4006,-0.055,-0.090
4007,-0.075,-0.130
4008,-0.090,-0.145
4009,-0.090,-0.125
4010,-0.080,-0.155
4011,-0.090,-0.195
4012,-0.060,-0.245
4013,-0.105,-0.255
4014,-0.105,-0.255
4015,-0.090,-0.265
4016,-0.100,-0.265
4017,-0.110,-0.255
4018,-0.115,-0.260
4019,-0.115,-0.265
4020,-0.105,-0.315
4021,-0.090,-0.485
4022,-0.095,-0.345
4023,-0.040,0.370
4024,0.125,1.495
4025,0.280,2.470
4026,0.340,2.005
4027,0.225,0.810
4028,-0.085,0.185
4029,-0.210,-0.010
4030,-0.120,-0.170
4031,-0.080,-0.255
4032,-0.080,-0.305
4033,-0.100,-0.330
4034,-0.095,-0.340
4035,-0.095,-0.370
4036,-0.085,-0.385
4037,-0.085,-0.370
4038,-0.065,-0.380
4039,-0.055,-0.360
4040,-0.065,-0.385
4041,-0.060,-0.380
4042,-0.040,-0.380
4043,-0.065,-0.375
4044,-0.050,-0.370
4045,-0.045,-0.390
4046,-0.040,-0.390
4047,-0.055,-0.385
4048,-0.025,-0.385
4049,-0.010,-0.380
4050,-0.025,-0.365
4051,-0.010,-0.355
4052,-0.015,-0.355
4053,0.010,-0.340
4054,0.000,-0.330
4055,0.035,-0.330
4056,0.050,-0.315
4057,0.050,-0.300
4058,0.070,-0.295
4059,0.065,-0.290
4060,0.085,-0.270
4061,0.085,-0.255
4062,0.085,-0.260
4063,0.110,-0.250
4064,0.090,-0.240
4065,0.085,-0.225
4066,0.065,-0.200
4067,0.045,-0.190
4068,0.040,-0.175
4069,0.040,-0.160
4070,0.000,-0.150
4071,0.000,-0.160
4072,-0.025,-0.150
4073,-0.040,-0.150
4074,-0.045,-0.185
4075,-0.055,-0.195
4076,-0.045,-0.205
4077,-0.050,-0.215
4078,-0.030,-0.225
4079,-0.045,-0.225
4080,-0.060,-0.225
4081,-0.040,-0.225
4082,-0.025,-0.240
4083,-0.050,-0.230
4084,-0.055,-0.220
4085,-0.030,-0.225
4086,-0.045,-0.215
4087,-0.025,-0.210
4088,-0.035,-0.210
4089,-0.035,-0.195
4090,-0.030,-0.180
4091,-0.015,-0.175
4092,-0.015,-0.190
4093,-0.015,-0.175
4094,-0.015,-0.195
4095,-0.010,-0.195
4096,-0.020,-0.210
4097,-0.050,-0.190
4098,-0.045,-0.195
4099,-0.020,-0.190
4100,-0.025,-0.195
4101,-0.045,-0.195
4102,-0.045,-0.200
4103,-0.050,-0.215
4104,-0.050,-0.205
4105,-0.040,-0.220
4106,-0.045,-0.205
4107,-0.045,-0.210
4108,-0.055,-0.210
4109,-0.045,-0.210
4110,-0.050,-0.205
4111,-0.055,-0.205
4112,-0.055,-0.190
4113,-0.045,-0.190
4114,-0.045,-0.195
4115,-0.040,-0.190
4116,-0.055,-0.205
4117,-0.055,-0.195
4118,-0.040,-0.205
4119,-0.050,-0.215
4120,-0.040,-0.200
4121,-0.020,-0.200
4122,-0.045,-0.185
4123,-0.035,-0.190
4124,-0.040,-0.190
4125,-0.040,-0.190
4126,-0.030,-0.185
4127,-0.040,-0.190
4128,-0.045,-0.190
4129,-0.065,-0.195
4130,-0.035,-0.190
4131,-0.055,-0.185
4132,-0.040,-0.195
4133,-0.055,-0.190
4134,-0.040,-0.180
4135,-0.050,-0.180
4136,-0.050,-0.185
4137,-0.040,-0.145
4138,-0.025,-0.125
4139,-0.010,-0.120
4140,0.010,-0.105
4141,0.010,-0.075
4142,0.015,-0.065
4143,0.005,-0.085
4144,-0.005,-0.135
4145,-0.040,-0.145
4146,-0.050,-0.135
4147,-0.060,-0.135
4148,-0.055,-0.125
4149,-0.070,-0.200
4150,-0.050,-0.230
4151,-0.055,-0.235
4152,-0.060,-0.225
4153,-0.065,-0.240
4154,-0.085,-0.230
4155,-0.075,-0.245
4156,-0.070,-0.245
4157,-0.075,-0.240
4158,-0.050,-0.290
4159,-0.055,-0.480
4160,-0.070,-0.370
4161,-0.005,0.435
4162,0.170,1.610
4163,0.335,2.660
4164,0.415,2.245
4165,0.310,1.060
4166,0.015,0.370
4167,-0.145,0.065
4168,-0.085,-0.080
4169,-0.025,-0.180
4170,0.000,-0.255
4171,-0.015,-0.295
4172,-0.025,-0.305
4173,-0.005,-0.320
4174,-0.010,-0.335
4175,-0.005,-0.330
4176,-0.005,-0.350
4177,-0.015,-0.325
4178,-0.010,-0.335
4179,-0.010,-0.335
4180,-0.005,-0.335
4181,-0.005,-0.340
4182,0.005,-0.335
4183,0.000,-0.340
4184,0.000,-0.330
4185,0.005,-0.345
4186,0.000,-0.320
4187,0.020,-0.310
4188,0.020,-0.310
4189,0.040,-0.290
4190,0.055,-0.305
4191,0.045,-0.300
4192,0.075,-0.285
4193,0.075,-0.270
4194,0.095,-0.280
4195,0.105,-0.255
4196,0.120,-0.250
4197,0.140,-0.225
4198,0.170,-0.230
4199,0.185,-0.215
4200,0.170,-0.215
4201,0.170,-0.190
4202,0.175,-0.180
4203,0.180,-0.165
4204,0.170,-0.155
4205,0.165,-0.135
4206,0.120,-0.095
4207,0.110,-0.080
4208,0.115,-0.080
4209,0.085,-0.070
4210,0.070,-0.065
4211,0.055,-0.085
4212,0.025,-0.095
4213,0.015,-0.110
4214,0.015,-0.120
4215,0.000,-0.135
4216,0.000,-0.140
4217,0.005,-0.145
4218,0.005,-0.155
4219,0.000,-0.155
4220,0.030,-0.175
4221,0.030,-0.170
4222,0.005,-0.190
4223,0.000,-0.180
4224,0.005,-0.190
4225,0.005,-0.175
4226,0.015,-0.185
4227,0.015,-0.150
4228,0.015,-0.160
4229,0.020,-0.160
4230,0.015,-0.160
4231,0.005,-0.150
4232,-0.010,-0.175
4233,0.005,-0.160
4234,0.000,-0.150
4235,-0.005,-0.170
4236,-0.010,-0.160
4237,-0.010,-0.160
4238,-0.010,-0.160
4239,-0.005,-0.165
4240,-0.025,-0.175
4241,-0.030,-0.165
4242,-0.020,-0.150
4243,-0.030,-0.160
4244,-0.015,-0.160
4245,-0.025,-0.180
4246,-0.035,-0.170
4247,-0.020,-0.175
4248,-0.020,-0.165
4249,-0.010,-0.155
4250,0.000,-0.175
4251,-0.025,-0.180
4252,-0.015,-0.170
4253,-0.040,-0.175
4254,-0.030,-0.165
4255,-0.035,-0.170
4256,-0.020,-0.165
4257,-0.040,-0.170
4258,-0.025,-0.170
4259,-0.020,-0.155
4260,-0.035,-0.165
4261,-0.045,-0.160
4262,-0.030,-0.150
4263,-0.040,-0.160
4264,-0.040,-0.175
4265,-0.040,-0.170
4266,-0.045,-0.155
4267,-0.025,-0.160
4268,-0.035,-0.150
4269,-0.040,-0.150
4270,-0.035,-0.150
4271,-0.030,-0.145
4272,-0.030,-0.150
4273,-0.035,-0.155
4274,-0.030,-0.140
4275,-0.035,-0.150
4276,-0.045,-0.135
4277,-0.020,-0.105
4278,-0.005,-0.080
4279,0.000,-0.060
4280,-0.005,-0.040
4281,0.000,-0.020
4282,0.000,-0.040
4283,-0.030,-0.080
4284,-0.055,-0.090
4285,-0.060,-0.095
4286,-0.060,-0.105
4287,-0.060,-0.120
4288,-0.075,-0.160
4289,-0.045,-0.195
4290,-0.070,-0.205
4291,-0.070,-0.195
4292,-0.075,-0.220
4293,-0.060,-0.205
4294,-0.070,-0.195
4295,-0.060,-0.205
4296,-0.070,-0.220
4297,-0.055,-0.350
4298,-0.050,-0.450
4299,-0.045,0.010
4300,0.065,1.000
4301,0.255,2.200
4302,0.365,2.655
4303,0.380,1.510
4304,0.115,0.645
4305,-0.135,0.210
4306,-0.110,0.025
4307,-0.030,-0.100
4308,-0.015,-0.195
4309,-0.030,-0.235
4310,-0.035,-0.260
4311,-0.040,-0.305
4312,-0.035,-0.300
4313,-0.030,-0.300
4314,-0.020,-0.310
4315,-0.015,-0.310
4316,-0.020,-0.320
4317,-0.025,-0.315
4318,-0.025,-0.310
4319,-0.010,-0.310
4320,-0.005,-0.300
4321,-0.005,-0.300
4322,-0.010,-0.285
4323,0.000,-0.285
4324,0.005,-0.280
4325,0.010,-0.270
4326,0.015,-0.290
4327,0.020,-0.275
4328,0.035,-0.280
4329,0.050,-0.285
4330,0.060,-0.265
4331,0.055,-0.265
4332,0.070,-0.255
4333,0.095,-0.245
4334,0.115,-0.225
4335,0.140,-0.215
4336,0.145,-0.185
4337,0.155,-0.180
4338,0.160,-0.185
4339,0.180,-0.170
4340,0.175,-0.155
4341,0.190,-0.130
4342,0.175,-0.115
4343,0.145,-0.085
4344,0.125,-0.070
4345,0.125,-0.040
4346,0.095,-0.025
4347,0.080,-0.020
4348,0.060,-0.020
4349,0.050,-0.035
4350,0.010,-0.030
4351,0.005,-0.075
4352,0.010,-0.110
4353,0.010,-0.100
4354,0.000,-0.110
4355,-0.015,-0.115
4356,-0.005,-0.115
4357,-0.020,-0.130
4358,-0.020,-0.130
4359,-0.010,-0.125
4360,-0.030,-0.140
4361,-0.005,-0.150
4362,-0.015,-0.160
4363,-0.010,-0.155
4364,-0.015,-0.140
4365,-0.015,-0.155
4366,-0.020,-0.150
4367,-0.030,-0.130
4368,-0.040,-0.140
4369,-0.030,-0.135
4370,-0.020,-0.135
4371,-0.035,-0.140
4372,-0.020,-0.125
4373,-0.030,-0.145
4374,-0.040,-0.145
4375,-0.020,-0.145
4376,-0.035,-0.145
4377,-0.035,-0.150
4378,-0.030,-0.160
4379,-0.030,-0.155
4380,-0.040,-0.155
4381,-0.050,-0.155
4382,-0.060,-0.160
4383,-0.040,-0.160
4384,-0.035,-0.150
4385,-0.050,-0.150
4386,-0.050,-0.165
4387,-0.060,-0.155
4388,-0.055,-0.155
4389,-0.065,-0.165
4390,-0.045,-0.150
4391,-0.045,-0.160
4392,-0.065,-0.175
4393,-0.060,-0.160
4394,-0.075,-0.165
4395,-0.055,-0.150
4396,-0.050,-0.145
4397,-0.050,-0.160
4398,-0.065,-0.165
4399,-0.060,-0.165
4400,-0.060,-0.160
4401,-0.070,-0.155
4402,-0.060,-0.170
4403,-0.060,-0.165
4404,-0.065,-0.165
4405,-0.075,-0.155
4406,-0.055,-0.170
4407,-0.060,-0.165
4408,-0.050,-0.165
4409,-0.070,-0.155
4410,-0.075,-0.125
4411,-0.050,-0.120
4412,-0.030,-0.095
4413,-0.030,-0.095
4414,-0.025,-0.035
4415,-0.030,-0.025
4416,-0.050,-0.025
4417,-0.050,-0.060
4418,-0.065,-0.100
4419,-0.075,-0.095
4420,-0.095,-0.100
4421,-0.100,-0.115
4422,-0.065,-0.150
4423,-0.075,-0.220
4424,-0.070,-0.225
4425,-0.090,-0.215
4426,-0.100,-0.205
4427,-0.085,-0.210
4428,-0.080,-0.195
4429,-0.080,-0.195
4430,-0.070,-0.230
4431,-0.085,-0.305
4432,-0.075,-0.450
4433,-0.060,-0.205
4434,0.000,0.625
4435,0.160,1.740
4436,0.305,2.655
4437,0.350,1.950
4438,0.240,0.790
4439,-0.035,0.240
4440,-0.160,0.025
4441,-0.095,-0.080
4442,-0.065,-0.175
4443,-0.045,-0.240
4444,-0.045,-0.265
4445,-0.055,-0.285
4446,-0.055,-0.300
4447,-0.050,-0.320
4448,-0.050,-0.325
4449,-0.055,-0.315
4450,-0.035,-0.320
4451,-0.040,-0.320
4452,-0.055,-0.310
4453,-0.040,-0.310
4454,-0.050,-0.320
4455,-0.040,-0.325
4456,-0.035,-0.310
4457,-0.040,-0.320
4458,-0.025,-0.330
4459,-0.015,-0.305
4460,-0.010,-0.315
4461,-0.015,-0.315
4462,0.000,-0.300
4463,0.000,-0.280
4464,0.010,-0.270
4465,0.030,-0.255
4466,0.030,-0.260
4467,0.050,-0.235
4468,0.060,-0.230
4469,0.085,-0.220
4470,0.085,-0.220
4471,0.105,-0.200
4472,0.120,-0.200
4473,0.130,-0.195
4474,0.125,-0.190
4475,0.135,-0.170
4476,0.110,-0.160
4477,0.110,-0.150
4478,0.080,-0.110
4479,0.080,-0.090
4480,0.055,-0.080
4481,0.055,-0.085
4482,0.030,-0.080
4483,0.010,-0.080
4484,0.005,-0.095
4485,0.000,-0.095
4486,-0.015,-0.125
4487,-0.030,-0.130
4488,-0.030,-0.145
4489,-0.020,-0.165
4490,-0.040,-0.170
4491,-0.045,-0.175
4492,-0.040,-0.190
4493,-0.055,-0.200
4494,-0.050,-0.175
4495,-0.030,-0.190
4496,-0.035,-0.170
4497,-0.050,-0.155
4498,-0.040,-0.165
4499,-0.025,-0.170
4500,-0.035,-0.170
4501,-0.025,-0.170
4502,-0.025,-0.165
4503,-0.020,-0.155
4504,-0.045,-0.160
4505,-0.025,-0.145
4506,-0.035,-0.160
4507,-0.030,-0.160
4508,-0.035,-0.180
4509,-0.055,-0.170
4510,-0.055,-0.165
4511,-0.055,-0.185
4512,-0.050,-0.185
4513,-0.045,-0.180
4514,-0.050,-0.190
4515,-0.060,-0.165
4516,-0.055,-0.185
4517,-0.050,-0.185
4518,-0.050,-0.175
4519,-0.065,-0.190
4520,-0.055,-0.195
4521,-0.055,-0.180
4522,-0.055,-0.200
4523,-0.055,-0.190
4524,-0.035,-0.205
4525,-0.055,-0.190
4526,-0.070,-0.185
4527,-0.055,-0.190
4528,-0.055,-0.175
4529,-0.045,-0.190
4530,-0.055,-0.185
4531,-0.060,-0.190
4532,-0.060,-0.185
4533,-0.040,-0.180
4534,-0.040,-0.170
4535,-0.040,-0.180
4536,-0.055,-0.190
4537,-0.050,-0.185
4538,-0.075,-0.185
4539,-0.050,-0.165
4540,-0.040,-0.150
4541,-0.015,-0.110
4542,-0.005,-0.105
4543,0.000,-0.060
4544,-0.005,-0.035
4545,0.000,-0.040
4546,-0.015,-0.075
4547,-0.040,-0.115
4548,-0.065,-0.110
4549,-0.070,-0.105
4550,-0.065,-0.105
4551,-0.060,-0.150
4552,-0.050,-0.205
4553,-0.055,-0.215
4554,-0.060,-0.215
4555,-0.060,-0.225
4556,-0.060,-0.220
4557,-0.060,-0.215
4558,-0.060,-0.220
4559,-0.070,-0.230
4560,-0.040,-0.295
4561,-0.045,-0.480
4562,-0.050,-0.260
4563,0.000,0.605
4564,0.190,1.850
4565,0.355,2.810
4566,0.430,1.810
4567,0.225,0.745
4568,-0.095,0.230
4569,-0.160,0.010
4570,-0.070,-0.095
4571,-0.015,-0.190
4572,-0.020,-0.230
4573,-0.020,-0.270
4574,-0.025,-0.295
4575,-0.045,-0.295
4576,-0.030,-0.290
4577,-0.030,-0.310
4578,-0.020,-0.305
4579,-0.020,-0.295
4580,-0.005,-0.290
4581,0.000,-0.305
4582,-0.015,-0.305
4583,-0.010,-0.300
4584,-0.015,-0.290
4585,0.000,-0.320
4586,0.000,-0.310
4587,0.005,-0.295
4588,0.005,-0.280
4589,0.020,-0.290
4590,0.030,-0.280
4591,0.020,-0.250
4592,0.045,-0.260
4593,0.050,-0.245
4594,0.075,-0.235
4595,0.085,-0.225
4596,0.105,-0.200
4597,0.120,-0.210
4598,0.140,-0.180
4599,0.165,-0.170
4600,0.180,-0.160
4601,0.190,-0.155
4602,0.195,-0.130
4603,0.180,-0.100
4604,0.190,-0.070
4605,0.175,-0.065
4606,0.155,-0.030
4607,0.155,-0.015
4608,0.130,-0.005
4609,0.100,-0.010
4610,0.075,0.000
4611,0.070,-0.015
4612,0.030,-0.030
4613,0.030,-0.060
4614,0.015,-0.070
4615,0.005,-0.105
4616,0.000,-0.120
4617,0.000,-0.110
4618,0.000,-0.135
4619,-0.010,-0.130
4620,0.000,-0.120
4621,0.010,-0.135
4622,-0.005,-0.130
4623,0.000,-0.145
4624,-0.010,-0.155
4625,-0.015,-0.160
4626,0.000,-0.150
4627,0.000,-0.155
4628,0.005,-0.140
4629,0.000,-0.160
4630,0.000,-0.150
4631,-0.010,-0.140
4632,-0.005,-0.145
4633,-0.005,-0.145
4634,0.000,-0.145
4635,-0.010,-0.140
4636,-0.015,-0.145
4637,-0.010,-0.150
4638,-0.015,-0.140
4639,-0.015,-0.140
4640,-0.015,-0.150
4641,-0.010,-0.150
4642,0.000,-0.155
4643,-0.015,-0.150
4644,-0.010,-0.160
4645,-0.035,-0.155
4646,-0.035,-0.165
4647,-0.020,-0.165
4648,-0.020,-0.160
4649,-0.020,-0.165
4650,-0.040,-0.160
4651,-0.030,-0.175
4652,-0.035,-0.155
4653,-0.045,-0.155
4654,-0.030,-0.170
4655,-0.030,-0.155
4656,-0.020,-0.160
4657,-0.040,-0.150
4658,-0.030,-0.165
4659,-0.030,-0.160
4660,-0.035,-0.170
4661,-0.045,-0.160
4662,-0.040,-0.165
4663,-0.035,-0.185
4664,-0.040,-0.165
4665,-0.050,-0.170
4666,-0.045,-0.170
4667,-0.045,-0.175
4668,-0.040,-0.155
4669,-0.040,-0.145
4670,-0.045,-0.110
4671,0.000,-0.090
4672,0.000,-0.090
4673,0.000,-0.045
4674,0.000,-0.020
4675,0.000,-0.040
4676,-0.030,-0.095
4677,-0.040,-0.120
4678,-0.055,-0.110
4679,-0.050,-0.105
4680,-0.065,-0.125
4681,-0.040,-0.165
4682,-0.070,-0.220
4683,-0.050,-0.235
4684,-0.070,-0.225
4685,-0.060,-0.220
4686,-0.070,-0.225
4687,-0.075,-0.215
4688,-0.055,-0.210
4689,-0.055,-0.225
4690,-0.055,-0.265
4691,-0.045,-0.445
4692,-0.045,-0.390
4693,-0.035,0.315
4694,0.125,1.460
4695,0.310,2.540
4696,0.395,2.330
4697,0.315,1.110
4698,0.010,0.410
4699,-0.160,0.090
4700,-0.075,-0.075
4701,-0.025,-0.175
4702,-0.025,-0.230
4703,-0.030,-0.270
4704,-0.055,-0.290
4705,-0.035,-0.315
4706,-0.020,-0.320
4707,-0.020,-0.330
4708,-0.015,-0.315
4709,-0.030,-0.325
4710,-0.005,-0.325
4711,-0.045,-0.320
4712,-0.010,-0.325
4713,-0.025,-0.310
4714,-0.020,-0.300
4715,0.000,-0.320
4716,-0.025,-0.320
4717,0.000,-0.310
4718,-0.020,-0.300
4719,-0.010,-0.275
4720,0.000,-0.305
4721,0.020,-0.300
4722,0.015,-0.285
4723,0.025,-0.290
4724,0.040,-0.265
4725,0.050,-0.265
4726,0.060,-0.250
4727,0.075,-0.240
4728,0.105,-0.220
4729,0.130,-0.215
4730,0.130,-0.200
4731,0.150,-0.195
4732,0.165,-0.175
4733,0.165,-0.145
4734,0.150,-0.140
4735,0.160,-0.110
4736,0.170,-0.075
4737,0.150,-0.070
4738,0.135,-0.015
4739,0.120,-0.020
4740,0.080,-0.030
4741,0.070,-0.035
4742,0.030,-0.030
4743,0.030,-0.065
4744,0.015,-0.095
4745,0.005,-0.100
4746,-0.005,-0.115
4747,-0.025,-0.140
4748,-0.020,-0.140
4749,-0.045,-0.130
4750,-0.020,-0.160
4751,-0.025,-0.160
4752,-0.035,-0.145
4753,-0.040,-0.185
4754,-0.020,-0.180
4755,-0.025,-0.205
4756,-0.040,-0.195
4757,-0.035,-0.200
4758,-0.035,-0.200
4759,-0.035,-0.170
4760,-0.030,-0.190
4761,-0.020,-0.185
4762,-0.050,-0.200
4763,-0.040,-0.195
4764,-0.025,-0.185
4765,-0.040,-0.170
4766,-0.040,-0.165
4767,-0.050,-0.170
4768,-0.050,-0.175
4769,-0.065,-0.195
4770,-0.060,-0.200
4771,-0.060,-0.175
4772,-0.070,-0.180
4773,-0.065,-0.190
4774,-0.060,-0.190
4775,-0.075,-0.185
4776,-0.070,-0.210
4777,-0.065,-0.185
4778,-0.080,-0.160
4779,-0.070,-0.175
4780,-0.075,-0.180
4781,-0.070,-0.190
4782,-0.090,-0.190
4783,-0.080,-0.210
4784,-0.105,-0.190
4785,-0.090,-0.180
4786,-0.075,-0.200
4787,-0.070,-0.195
4788,-0.085,-0.190
4789,-0.090,-0.190
4790,-0.080,-0.195
4791,-0.095,-0.200
4792,-0.085,-0.215
4793,-0.100,-0.215
4794,-0.090,-0.205
4795,-0.095,-0.195
4796,-0.080,-0.175
4797,-0.075,-0.155
4798,-0.065,-0.140
4799,-0.055,-0.110
4800,-0.055,-0.080
4801,-0.065,-0.080
4802,-0.085,-0.110
4803,-0.085,-0.160
4804,-0.115,-0.165
4805,-0.115,-0.145
4806,-0.150,-0.160
4807,-0.130,-0.175
4808,-0.120,-0.245
4809,-0.115,-0.290
4810,-0.130,-0.260
4811,-0.120,-0.260
4812,-0.120,-0.255
4813,-0.130,-0.265
4814,-0.130,-0.270
4815,-0.115,-0.255
4816,-0.110,-0.285
4817,-0.115,-0.430
4818,-0.105,-0.355
4819,-0.045,0.300
4820,0.090,1.385
4821,0.250,2.410
4822,0.310,2.275
4823,0.250,0.990
4824,-0.010,0.260
4825,-0.190,0.015
4826,-0.175,-0.095
4827,-0.105,-0.205
4828,-0.080,-0.270
4829,-0.095,-0.300
4830,-0.105,-0.310
4831,-0.100,-0.320
4832,-0.085,-0.335
4833,-0.085,-0.340
4834,-0.080,-0.340
4835,-0.090,-0.345
4836,-0.080,-0.355
4837,-0.080,-0.365
4838,-0.070,-0.340
4839,-0.065,-0.345
4840,-0.050,-0.360
4841,-0.070,-0.335
4842,-0.055,-0.340
4843,-0.045,-0.340
4844,-0.060,-0.330
4845,-0.060,-0.315
4846,-0.030,-0.315
4847,-0.030,-0.320
4848,-0.020,-0.300
4849,-0.010,-0.300
4850,0.020,-0.280
4851,0.020,-0.275
4852,0.030,-0.250
4853,0.045,-0.245
4854,0.075,-0.210
4855,0.085,-0.210
4856,0.080,-0.200
4857,0.100,-0.190
4858,0.105,-0.180
4859,0.110,-0.165
4860,0.120,-0.140
4861,0.105,-0.130
4862,0.095,-0.115
4863,0.090,-0.080
4864,0.055,-0.080
4865,0.030,-0.065
4866,0.040,-0.060
4867,0.000,-0.090
4868,0.005,-0.080
4869,-0.025,-0.095
4870,-0.020,-0.110
4871,-0.005,-0.130
4872,-0.010,-0.145
4873,-0.035,-0.150
4874,-0.030,-0.160
4875,-0.035,-0.165
4876,-0.035,-0.180
4877,-0.035,-0.180
4878,-0.045,-0.180
4879,-0.045,-0.185
4880,-0.050,-0.190
4881,-0.050,-0.185
4882,-0.040,-0.170
4883,-0.045,-0.170
4884,-0.040,-0.160
4885,-0.065,-0.155
4886,-0.035,-0.150
4887,-0.045,-0.155
4888,-0.060,-0.150
4889,-0.045,-0.170
4890,-0.035,-0.160
4891,-0.035,-0.165
4892,-0.050,-0.150
4893,-0.050,-0.150
4894,-0.050,-0.160
4895,-0.060,-0.145
4896,-0.065,-0.160
4897,-0.055,-0.165
4898,-0.055,-0.170
4899,-0.075,-0.180
4900,-0.065,-0.190
4901,-0.075,-0.185
4902,-0.050,-0.190
4903,-0.080,-0.195
4904,-0.070,-0.185
4905,-0.075,-0.190
4906,-0.085,-0.185
4907,-0.070,-0.185
4908,-0.065,-0.180
4909,-0.075,-0.190
4910,-0.080,-0.180
4911,-0.085,-0.195
4912,-0.070,-0.180
4913,-0.060,-0.200
4914,-0.065,-0.190
4915,-0.070,-0.185
4916,-0.075,-0.185
4917,-0.075,-0.190
4918,-0.065,-0.165
4919,-0.060,-0.145
4920,-0.035,-0.125
4921,-0.020,-0.110
4922,-0.015,-0.085
4923,-0.015,-0.055
4924,-0.050,-0.080
4925,-0.060,-0.110
4926,-0.065,-0.150
4927,-0.110,-0.135
4928,-0.105,-0.140
4929,-0.110,-0.155
4930,-0.115,-0.165
4931,-0.100,-0.225
4932,-0.085,-0.250
4933,-0.105,-0.230
4934,-0.115,-0.250
4935,-0.100,-0.245
4936,-0.105,-0.240
4937,-0.120,-0.245
4938,-0.105,-0.250
4939,-0.090,-0.325
4940,-0.090,-0.510
4941,-0.095,-0.305
4942,-0.040,0.570
4943,0.150,1.795
4944,0.340,2.755
4945,0.400,2.080
4946,0.240,0.880
4947,-0.080,0.265
4948,-0.195,0.025
4949,-0.105,-0.100
4950,-0.050,-0.205
4951,-0.045,-0.255
4952,-0.045,-0.305
4953,-0.065,-0.310
4954,-0.040,-0.320
4955,-0.060,-0.335
4956,-0.065,-0.335
4957,-0.060,-0.335
4958,-0.050,-0.345
4959,-0.070,-0.335
4960,-0.040,-0.345
4961,-0.030,-0.340
4962,-0.015,-0.330
4963,-0.025,-0.325
4964,-0.010,-0.320
4965,-0.005,-0.335
4966,-0.005,-0.315
4967,0.000,-0.325
4968,0.005,-0.320
4969,0.000,-0.305
4970,0.015,-0.285
4971,0.030,-0.285
4972,0.050,-0.260
4973,0.040,-0.270
4974,0.050,-0.240
4975,0.090,-0.235
4976,0.100,-0.215
4977,0.125,-0.215
4978,0.135,-0.205
4979,0.140,-0.170
4980,0.145,-0.150
4981,0.160,-0.145
4982,0.155,-0.110
4983,0.165,-0.090
4984,0.155,-0.065
4985,0.145,-0.045
4986,0.120,-0.010
4987,0.115,-0.015
4988,0.110,-0.030
4989,0.055,-0.030
4990,0.035,-0.045
4991,0.000,-0.055
4992,0.025,-0.080
4993,-0.005,-0.085
4994,-0.010,-0.100
4995,-0.025,-0.115
4996,-0.005,-0.125
4997,-0.020,-0.135
4998,-0.005,-0.150
4999,-0.025,-0.145
5000,-0.030,-0.170
5001,-0.020,-0.170
5002,-0.025,-0.175
5003,-0.025,-0.180
5004,0.000,-0.185
5005,-0.010,-0.180
5006,-0.025,-0.190
5007,-0.020,-0.190
5008,-0.035,-0.185
5009,-0.035,-0.180
5010,-0.030,-0.170
5011,-0.050,-0.185
5012,-0.035,-0.170
5013,-0.045,-0.165
5014,-0.055,-0.160
5015,-0.045,-0.170
5016,-0.060,-0.180
5017,-0.065,-0.175
5018,-0.060,-0.175
5019,-0.040,-0.170
5020,-0.050,-0.160
5021,-0.050,-0.155
5022,-0.050,-0.170
5023,-0.060,-0.170
5024,-0.065,-0.175
5025,-0.070,-0.175
5026,-0.070,-0.165
5027,-0.060,-0.185
5028,-0.065,-0.190
5029,-0.080,-0.175
5030,-0.070,-0.180
5031,-0.060,-0.160
5032,-0.075,-0.170
5033,-0.055,-0.175
5034,-0.080,-0.185
5035,-0.070,-0.195
5036,-0.075,-0.175
5037,-0.075,-0.195
5038,-0.065,-0.180
5039,-0.065,-0.170
5040,-0.075,-0.170
5041,-0.075,-0.180
5042,-0.055,-0.195
5043,-0.060,-0.175
5044,-0.055,-0.170
5045,-0.065,-0.150
5046,-0.060,-0.130
5047,-0.035,-0.110
5048,-0.040,-0.100
5049,-0.020,-0.070
5050,-0.015,-0.060
5051,-0.050,-0.065
5052,-0.060,-0.110
5053,-0.100,-0.140
5054,-0.095,-0.145
5055,-0.120,-0.140
5056,-0.105,-0.160
5057,-0.095,-0.215
5058,-0.115,-0.270
5059,-0.105,-0.255
5060,-0.130,-0.245
5061,-0.105,-0.275
5062,-0.110,-0.270
5063,-0.120,-0.240
5064,-0.115,-0.250
5065,-0.130,-0.265
5066,-0.120,-0.330
5067,-0.105,-0.505
5068,-0.110,-0.275
5069,-0.055,0.570
5070,0.130,1.720
5071,0.255,2.595
5072,0.335,1.860
5073,0.195,0.755
5074,-0.120,0.220
5075,-0.215,0.010
5076,-0.130,-0.130
5077,-0.065,-0.215
5078,-0.075,-0.265
5079,-0.075,-0.305
5080,-0.090,-0.305
5081,-0.080,-0.355
5082,-0.090,-0.350
5083,-0.075,-0.355
5084,-0.070,-0.355
5085,-0.075,-0.360
5086,-0.085,-0.360
5087,-0.070,-0.360
5088,-0.060,-0.360
5089,-0.075,-0.345
5090,-0.065,-0.340
5091,-0.045,-0.360
5092,-0.055,-0.340
5093,-0.030,-0.340
5094,-0.030,-0.345
5095,-0.020,-0.345
5096,-0.015,-0.305
5097,-0.015,-0.310
5098,0.000,-0.280
5099,0.010,-0.290
5100,0.005,-0.290
5101,0.030,-0.270
5102,0.045,-0.260
5103,0.030,-0.255
5104,0.050,-0.250
5105,0.075,-0.215
5106,0.105,-0.210
5107,0.105,-0.190
5108,0.100,-0.175
5109,0.105,-0.165
5110,0.110,-0.145
5111,0.100,-0.115
5112,0.115,-0.080
5113,0.080,-0.055
5114,0.065,-0.055
5115,0.055,-0.055
5116,0.030,-0.055
5117,0.005,-0.060
5118,-0.010,-0.095
5119,-0.015,-0.115
5120,-0.030,-0.110
5121,-0.040,-0.130
5122,-0.065,-0.170
5123,-0.035,-0.180
5124,-0.055,-0.160
5125,-0.055,-0.175
5126,-0.055,-0.180
5127,-0.050,-0.205
5128,-0.040,-0.210
5129,-0.050,-0.205
5130,-0.055,-0.210
5131,-0.050,-0.220
5132,-0.045,-0.210
5133,-0.045,-0.210
5134,-0.050,-0.215
5135,-0.055,-0.210
5136,-0.050,-0.215
5137,-0.050,-0.210
5138,-0.065,-0.235
5139,-0.040,-0.215
5140,-0.060,-0.205
5141,-0.060,-0.215
5142,-0.075,-0.230
5143,-0.080,-0.210
5144,-0.060,-0.210
5145,-0.070,-0.220
5146,-0.065,-0.235
5147,-0.075,-0.220
5148,-0.080,-0.225
5149,-0.080,-0.230
5150,-0.065,-0.215
5151,-0.070,-0.215
5152,-0.085,-0.215
5153,-0.085,-0.205
5154,-0.080,-0.215
5155,-0.105,-0.225
5156,-0.090,-0.200
5157,-0.090,-0.220
5158,-0.080,-0.215
5159,-0.090,-0.215
5160,-0.080,-0.235
5161,-0.090,-0.230
5162,-0.095,-0.230
5163,-0.095,-0.210
5164,-0.095,-0.220
5165,-0.095,-0.220
5166,-0.105,-0.230
5167,-0.090,-0.245
5168,-0.100,-0.225
5169,-0.100,-0.215
5170,-0.085,-0.190
5171,-0.080,-0.170
5172,-0.050,-0.160
5173,-0.050,-0.135
5174,-0.035,-0.100
5175,-0.065,-0.100
5176,-0.070,-0.125
5177,-0.085,-0.150
5178,-0.110,-0.160
5179,-0.140,-0.180
5180,-0.120,-0.185
5181,-0.135,-0.190
5182,-0.100,-0.240
5183,-0.115,-0.295
5184,-0.125,-0.295
5185,-0.140,-0.295
5186,-0.140,-0.305
5187,-0.135,-0.315
5188,-0.130,-0.300
5189,-0.135,-0.295
5190,-0.140,-0.320
5191,-0.140,-0.415
5192,-0.125,-0.540
5193,-0.120,-0.200
5194,-0.035,0.690
5195,0.135,1.805
5196,0.265,2.605
5197,0.295,1.790
5198,0.145,0.675
5199,-0.110,0.135
5200,-0.230,-0.045
5201,-0.170,-0.155
5202,-0.085,-0.260
5203,-0.090,-0.310
5204,-0.115,-0.355
5205,-0.115,-0.350
5206,-0.115,-0.380
5207,-0.110,-0.365
5208,-0.130,-0.380
5209,-0.100,-0.380
5210,-0.095,-0.365
5211,-0.090,-0.375
5212,-0.090,-0.375
5213,-0.100,-0.370
5214,-0.095,-0.380
5215,-0.105,-0.370
5216,-0.075,-0.370
5217,-0.070,-0.365
5218,-0.075,-0.355
5219,-0.055,-0.355
5220,-0.060,-0.350
5221,-0.040,-0.345
5222,-0.045,-0.325
5223,-0.025,-0.325
5224,0.000,-0.295
5225,-0.015,-0.315
5226,0.000,-0.285
5227,0.020,-0.290
5228,0.035,-0.270
5229,0.055,-0.265
5230,0.050,-0.255
5231,0.075,-0.230
5232,0.065,-0.235
5233,0.080,-0.235
5234,0.090,-0.215
5235,0.090,-0.190
5236,0.065,-0.160
5237,0.065,-0.155
5238,0.055,-0.145
5239,0.040,-0.115
5240,0.025,-0.100
5241,0.005,-0.105
5242,-0.015,-0.105
5243,-0.020,-0.090
5244,-0.020,-0.105
5245,-0.050,-0.130
5246,-0.045,-0.145
5247,-0.060,-0.180
5248,-0.050,-0.175
5249,-0.050,-0.190
5250,-0.070,-0.205
5251,-0.055,-0.195
5252,-0.055,-0.200
5253,-0.055,-0.210
5254,-0.055,-0.220
5255,-0.055,-0.205
5256,-0.055,-0.200
5257,-0.050,-0.200
5258,-0.060,-0.200
5259,-0.070,-0.195
5260,-0.075,-0.190
5261,-0.050,-0.205
5262,-0.055,-0.180
5263,-0.055,-0.180
5264,-0.055,-0.180
5265,-0.060,-0.170
5266,-0.070,-0.175
5267,-0.070,-0.185
5268,-0.080,-0.200
5269,-0.050,-0.195
5270,-0.070,-0.190
5271,-0.080,-0.205
5272,-0.105,-0.205
5273,-0.060,-0.205
5274,-0.090,-0.185
5275,-0.105,-0.200
5276,-0.080,-0.200
5277,-0.080,-0.200
5278,-0.080,-0.195
5279,-0.065,-0.190
5280,-0.100,-0.195
5281,-0.080,-0.210
5282,-0.090,-0.205
5283,-0.075,-0.200
5284,-0.090,-0.200
5285,-0.090,-0.185
5286,-0.075,-0.195
5287,-0.090,-0.195
5288,-0.090,-0.200
5289,-0.095,-0.190
5290,-0.105,-0.190
5291,-0.105,-0.200
5292,-0.095,-0.200
5293,-0.075,-0.200
5294,-0.080,-0.200
5295,-0.090,-0.200
5296,-0.095,-0.185
5297,-0.115,-0.190
5298,-0.095,-0.190
5299,-0.105,-0.190
5300,-0.075,-0.180
5301,-0.080,-0.145
5302,-0.060,-0.140
5303,-0.055,-0.145
5304,-0.035,-0.115
5305,-0.030,-0.075
5306,-0.045,-0.065
5307,-0.045,-0.085
5308,-0.055,-0.125
5309,-0.100,-0.145
5310,-0.095,-0.140
5311,-0.115,-0.140
5312,-0.115,-0.170
5313,-0.085,-0.200
5314,-0.090,-0.260
5315,-0.110,-0.250
5316,-0.120,-0.250
5317,-0.130,-0.270
5318,-0.115,-0.260
5319,-0.125,-0.260
5320,-0.115,-0.250
5321,-0.110,-0.260
5322,-0.115,-0.330
5323,-0.100,-0.515
5324,-0.110,-0.365
5325,-0.045,0.410
5326,0.110,1.590
5327,0.265,2.660
5328,0.375,2.395
5329,0.290,1.110
5330,-0.045,0.385
5331,-0.205,0.055
5332,-0.150,-0.060
5333,-0.075,-0.175
5334,-0.065,-0.265
5335,-0.075,-0.300
5336,-0.075,-0.320
5337,-0.080,-0.355
5338,-0.055,-0.355
5339,-0.070,-0.380
5340,-0.070,-0.395
5341,-0.070,-0.390
5342,-0.050,-0.390
5343,-0.065,-0.375
5344,-0.055,-0.375
5345,-0.045,-0.370
5346,-0.050,-0.380
5347,-0.040,-0.370
5348,-0.040,-0.370
5349,-0.035,-0.360
5350,-0.010,-0.360
5351,-0.005,-0.360
5352,0.000,-0.355
5353,-0.005,-0.330
5354,0.000,-0.355
5355,0.000,-0.320
5356,0.025,-0.330
5357,0.060,-0.295
5358,0.065,-0.305
5359,0.095,-0.280
5360,0.095,-0.275
5361,0.090,-0.235
5362,0.115,-0.235
5363,0.140,-0.220
5364,0.135,-0.200
5365,0.145,-0.180
5366,0.135,-0.160
5367,0.150,-0.140
5368,0.140,-0.110
5369,0.125,-0.075
5370,0.115,-0.075
5371,0.095,-0.045
5372,0.045,-0.045
5373,0.025,-0.055
5374,0.020,-0.070
5375,0.000,-0.085
5376,0.000,-0.105
5377,-0.010,-0.115
5378,-0.035,-0.120
5379,-0.035,-0.135
5380,-0.035,-0.170
5381,-0.035,-0.175
5382,-0.030,-0.175
5383,-0.040,-0.180
5384,-0.045,-0.200
5385,-0.030,-0.195
5386,-0.030,-0.205
5387,-0.030,-0.215
5388,-0.040,-0.230
5389,-0.030,-0.220
5390,-0.020,-0.220
5391,-0.015,-0.215
5392,-0.030,-0.220
5393,-0.040,-0.210
5394,-0.050,-0.225
5395,-0.060,-0.225
5396,-0.020,-0.220
5397,-0.045,-0.205
5398,-0.055,-0.210
5399,-0.060,-0.210
5400,-0.055,-0.205
5401,-0.060,-0.215
5402,-0.055,-0.215
5403,-0.075,-0.200
5404,-0.060,-0.215
5405,-0.075,-0.225
5406,-0.080,-0.215
5407,-0.080,-0.225
5408,-0.090,-0.210
5409,-0.080,-0.225
5410,-0.090,-0.215
5411,-0.080,-0.205
5412,-0.095,-0.210
5413,-0.085,-0.220
5414,-0.095,-0.220
5415,-0.090,-0.210
5416,-0.085,-0.205
5417,-0.085,-0.210
5418,-0.080,-0.210
5419,-0.105,-0.215
5420,-0.115,-0.215
5421,-0.080,-0.225
5422,-0.095,-0.220
5423,-0.100,-0.210
5424,-0.090,-0.215
5425,-0.075,-0.220
5426,-0.100,-0.225
5427,-0.090,-0.215
5428,-0.090,-0.235
5429,-0.095,-0.220
5430,-0.095,-0.220
5431,-0.120,-0.220
5432,-0.085,-0.215
5433,-0.100,-0.225
5434,-0.090,-0.185
5435,-0.070,-0.160
5436,-0.055,-0.165
5437,-0.045,-0.145
5438,-0.045,-0.095
5439,-0.055,-0.100
5440,-0.065,-0.130
5441,-0.095,-0.170
5442,-0.145,-0.180
5443,-0.130,-0.170
5444,-0.120,-0.185
5445,-0.130,-0.200
5446,-0.125,-0.255
5447,-0.140,-0.295
5448,-0.140,-0.310
5449,-0.150,-0.285
5450,-0.150,-0.290
5451,-0.135,-0.290
5452,-0.135,-0.290
5453,-0.140,-0.305
5454,-0.120,-0.300
5455,-0.125,-0.435
5456,-0.115,-0.515
5457,-0.125,0.000
5458,-0.015,1.055
5459,0.180,2.220
5460,0.270,2.475
5461,0.265,1.175
5462,0.000,0.355
5463,-0.225,0.045
5464,-0.185,-0.120
5465,-0.100,-0.230
5466,-0.090,-0.310
5467,-0.095,-0.330
5468,-0.100,-0.375
5469,-0.100,-0.380
5470,-0.110,-0.385
5471,-0.100,-0.405
5472,-0.095,-0.420
5473,-0.095,-0.420
5474,-0.095,-0.400
5475,-0.090,-0.410
5476,-0.100,-0.390
5477,-0.085,-0.400
5478,-0.080,-0.410
5479,-0.095,-0.400
5480,-0.075,-0.405
5481,-0.075,-0.405
5482,-0.070,-0.410
5483,-0.060,-0.385
5484,-0.045,-0.390
5485,-0.040,-0.375
5486,-0.025,-0.370
5487,-0.030,-0.375
5488,-0.025,-0.350
5489,-0.005,-0.365
5490,0.010,-0.340
5491,0.015,-0.330
5492,0.045,-0.315
5493,0.060,-0.300
5494,0.070,-0.285
5495,0.075,-0.265
5496,0.095,-0.260
5497,0.080,-0.260
5498,0.080,-0.210
5499,0.090,-0.195
5500,0.075,-0.155
5501,0.065,-0.140
5502,0.035,-0.135
5503,0.035,-0.130
5504,0.010,-0.115
5505,0.000,-0.115
5506,-0.015,-0.155
5507,-0.045,-0.160
5508,-0.050,-0.185
5509,-0.065,-0.200
5510,-0.050,-0.220
5511,-0.055,-0.215
5512,-0.070,-0.230
5513,-0.060,-0.230
5514,-0.055,-0.250
5515,-0.060,-0.260
5516,-0.050,-0.250
5517,-0.070,-0.275
5518,-0.085,-0.250
5519,-0.055,-0.280
5520,-0.070,-0.275
5521,-0.070,-0.270
5522,-0.065,-0.270
5523,-0.085,-0.255
5524,-0.075,-0.260
5525,-0.070,-0.260
5526,-0.075,-0.280
5527,-0.080,-0.270
5528,-0.085,-0.280
5529,-0.075,-0.270
5530,-0.100,-0.285
5531,-0.100,-0.265
5532,-0.110,-0.295
5533,-0.100,-0.270
5534,-0.105,-0.275
5535,-0.105,-0.270
5536,-0.100,-0.275
5537,-0.095,-0.285
5538,-0.105,-0.290
5539,-0.115,-0.275
5540,-0.105,-0.300
5541,-0.115,-0.305
5542,-0.110,-0.285
5543,-0.100,-0.310
5544,-0.110,-0.300
5545,-0.105,-0.295
5546,-0.115,-0.310
5547,-0.130,-0.290
5548,-0.085,-0.285
5549,-0.120,-0.310
5550,-0.105,-0.315
5551,-0.120,-0.315
5552,-0.110,-0.300
5553,-0.115,-0.300
5554,-0.100,-0.315
5555,-0.095,-0.305
5556,-0.100,-0.310
5557,-0.110,-0.305
5558,-0.105,-0.305
5559,-0.115,-0.295
5560,-0.105,-0.290
5561,-0.100,-0.300
5562,-0.110,-0.280
5563,-0.095,-0.255
5564,-0.085,-0.230
5565,-0.080,-0.215
5566,-0.075,-0.190
5567,-0.065,-0.170
5568,-0.070,-0.180
5569,-0.090,-0.220
5570,-0.135,-0.240
5571,-0.145,-0.255
5572,-0.155,-0.275
5573,-0.140,-0.265
5574,-0.140,-0.290
5575,-0.125,-0.345
5576,-0.150,-0.365
5577,-0.160,-0.375
5578,-0.155,-0.365
5579,-0.145,-0.350
5580,-0.155,-0.360
5581,-0.165,-0.360
5582,-0.145,-0.370
5583,-0.150,-0.405
5584,-0.130,-0.570
5585,-0.125,-0.500
5586,-0.115,0.230
5587,0.070,1.375
5588,0.240,2.485
5589,0.310,2.130
5590,0.225,0.840
5591,-0.060,0.115
5592,-0.235,-0.100
5593,-0.165,-0.215
5594,-0.095,-0.320
5595,-0.090,-0.390
5596,-0.105,-0.400
5597,-0.105,-0.435
5598,-0.095,-0.450
5599,-0.110,-0.440
5600,-0.115,-0.440
5601,-0.105,-0.440
5602,-0.105,-0.445
5603,-0.085,-0.435
5604,-0.105,-0.450
5605,-0.105,-0.445
5606,-0.075,-0.445
5607,-0.085,-0.440
5608,-0.070,-0.450
5609,-0.075,-0.440
5610,-0.080,-0.440
5611,-0.080,-0.435
5612,-0.050,-0.415
5613,-0.060,-0.400
5614,-0.040,-0.385
5615,-0.025,-0.395
5616,-0.005,-0.390
5617,0.000,-0.375
5618,0.000,-0.370
5619,0.025,-0.360
5620,0.040,-0.355
5621,0.040,-0.335
5622,0.050,-0.320
5623,0.080,-0.315
5624,0.080,-0.290
5625,0.090,-0.275
5626,0.090,-0.275
5627,0.105,-0.255
5628,0.080,-0.235
5629,0.070,-0.210
5630,0.065,-0.190
5631,0.030,-0.170
5632,0.040,-0.170
5633,0.000,-0.160
5634,-0.010,-0.170
5635,-0.010,-0.175
5636,-0.030,-0.180
5637,-0.030,-0.205
5638,-0.040,-0.225
5639,-0.060,-0.235
5640,-0.045,-0.240
5641,-0.045,-0.250
5642,-0.060,-0.245
5643,-0.050,-0.265
5644,-0.065,-0.265
5645,-0.070,-0.275
5646,-0.055,-0.270
5647,-0.055,-0.265
5648,-0.045,-0.270
5649,-0.045,-0.260
5650,-0.040,-0.265
5651,-0.045,-0.255
5652,-0.040,-0.250
5653,-0.060,-0.250
5654,-0.055,-0.250
5655,-0.050,-0.260
5656,-0.075,-0.255
5657,-0.045,-0.250
5658,-0.070,-0.255
5659,-0.060,-0.260
5660,-0.065,-0.265
5661,-0.085,-0.265
5662,-0.085,-0.265
5663,-0.070,-0.280
5664,-0.070,-0.265
5665,-0.065,-0.260
5666,-0.070,-0.255
5667,-0.080,-0.275
5668,-0.075,-0.260
5669,-0.075,-0.275
5670,-0.070,-0.260
5671,-0.060,-0.260
5672,-0.075,-0.260
5673,-0.075,-0.280
5674,-0.075,-0.255
5675,-0.085,-0.260
5676,-0.075,-0.255
5677,-0.080,-0.255
5678,-0.070,-0.270
5679,-0.075,-0.260
5680,-0.065,-0.270
5681,-0.070,-0.270
5682,-0.060,-0.260
5683,-0.085,-0.265
5684,-0.075,-0.265
5685,-0.075,-0.265
5686,-0.060,-0.255
5687,-0.070,-0.265
5688,-0.075,-0.270
5689,-0.080,-0.265
5690,-0.070,-0.255
5691,-0.075,-0.240
5692,-0.080,-0.250
5693,-0.090,-0.235
5694,-0.065,-0.270
5695,-0.080,-0.240
5696,-0.085,-0.265
5697,-0.080,-0.260
5698,-0.090,-0.250
5699,-0.080,-0.225
5700,-0.085,-0.210
5701,-0.080,-0.205
5702,-0.055,-0.200
5703,-0.050,-0.150
5704,-0.050,-0.140
5705,-0.055,-0.135
5706,-0.055,-0.180
5707,-0.075,-0.195
5708,-0.110,-0.215
5709,-0.105,-0.210
5710,-0.095,-0.200
5711,-0.110,-0.220
5712,-0.105,-0.270
5713,-0.090,-0.305
5714,-0.105,-0.315
5715,-0.120,-0.315
5716,-0.100,-0.305
5717,-0.105,-0.315
5718,-0.110,-0.295
5719,-0.105,-0.310
5720,-0.095,-0.335
5721,-0.095,-0.475
5722,-0.075,-0.590
5723,-0.100,-0.105
5724,0.010,0.950
5725,0.210,2.190
5726,0.360,2.650
5727,0.385,1.455
5728,0.110,0.530
5729,-0.165,0.100
5730,-0.150,-0.085
5731,-0.075,-0.220
5732,-0.065,-0.300
5733,-0.065,-0.335
5734,-0.055,-0.385
5735,-0.045,-0.385
5736,-0.050,-0.410
5737,-0.050,-0.410
5738,-0.045,-0.395
5739,-0.055,-0.420
5740,-0.045,-0.415
5741,-0.030,-0.400
5742,-0.025,-0.400
5743,-0.010,-0.400
5744,-0.035,-0.400
5745,-0.020,-0.410
5746,-0.015,-0.405
5747,0.000,-0.385
5748,0.000,-0.390
5749,0.000,-0.385
5750,0.005,-0.380
5751,0.020,-0.390
5752,0.020,-0.380
5753,0.030,-0.365
5754,0.045,-0.360
5755,0.045,-0.350
5756,0.070,-0.320
5757,0.100,-0.305
5758,0.110,-0.295
5759,0.120,-0.275
5760,0.125,-0.275
5761,0.145,-0.250
5762,0.180,-0.235
5763,0.170,-0.220
5764,0.210,-0.195
5765,0.190,-0.185
5766,0.160,-0.140
5767,0.165,-0.115
5768,0.150,-0.080
5769,0.140,-0.075
5770,0.115,-0.060
5771,0.085,-0.080
5772,0.080,-0.100
5773,0.060,-0.125
5774,0.035,-0.140
5775,0.020,-0.155
5776,0.010,-0.175
5777,-0.010,-0.190
5778,-0.015,-0.200
5779,-0.015,-0.215
5780,-0.010,-0.235
5781,-0.005,-0.230
5782,-0.005,-0.235
5783,-0.015,-0.240
5784,-0.025,-0.265
5785,-0.025,-0.260
5786,-0.010,-0.265
5787,-0.010,-0.265
5788,-0.015,-0.265
5789,-0.005,-0.255
5790,-0.020,-0.250
5791,-0.015,-0.235
5792,-0.025,-0.255
5793,-0.025,-0.230
5794,-0.010,-0.235
5795,-0.010,-0.230
5796,-0.015,-0.235
5797,-0.020,-0.230
5798,0.000,-0.240
5799,-0.005,-0.250
5800,-0.030,-0.230
5801,-0.025,-0.260
5802,-0.035,-0.260
5803,-0.035,-0.240
5804,-0.035,-0.245
5805,-0.045,-0.230
5806,-0.010,-0.255
5807,-0.030,-0.255
5808,-0.025,-0.235
5809,-0.030,-0.250
5810,-0.060,-0.260
5811,-0.045,-0.250
5812,-0.050,-0.240
5813,-0.045,-0.235
5814,-0.040,-0.245
5815,-0.025,-0.230
5816,-0.050,-0.245
5817,-0.070,-0.250
5818,-0.040,-0.235
5819,-0.060,-0.250
5820,-0.060,-0.255
5821,-0.045,-0.255
5822,-0.045,-0.250
5823,-0.035,-0.250
5824,-0.005,-0.245
5825,-0.040,-0.260
5826,-0.035,-0.265
5827,-0.040,-0.250
5828,-0.045,-0.255
5829,-0.060,-0.265
5830,-0.055,-0.260
5831,-0.040,-0.250
5832,-0.055,-0.260
5833,-0.060,-0.250
5834,-0.050,-0.255
5835,-0.050,-0.245
5836,-0.045,-0.250
5837,-0.050,-0.265
5838,-0.065,-0.260
5839,-0.065,-0.260
5840,-0.065,-0.260
5841,-0.065,-0.250
5842,-0.060,-0.245
5843,-0.050,-0.210
5844,-0.055,-0.195
5845,0.000,-0.185
5846,0.000,-0.180
5847,0.000,-0.130
5848,-0.010,-0.110
5849,-0.030,-0.110
5850,-0.030,-0.170
5851,-0.060,-0.210
5852,-0.060,-0.190
5853,-0.080,-0.200
5854,-0.055,-0.210
5855,-0.060,-0.245
5856,-0.055,-0.295
5857,-0.060,-0.290
5858,-0.080,-0.310
5859,-0.075,-0.290
5860,-0.075,-0.295
5861,-0.055,-0.285
5862,-0.080,-0.295
5863,-0.050,-0.315
5864,-0.065,-0.400
5865,-0.050,-0.565
5866,-0.035,-0.215
5867,0.035,0.620
5868,0.210,1.770
5869,0.330,2.605
5870,0.375,1.775
5871,0.215,0.690
5872,-0.060,0.165
5873,-0.155,-0.035
5874,-0.060,-0.170
5875,-0.030,-0.270
5876,-0.025,-0.330
5877,-0.030,-0.365
5878,-0.035,-0.370
5879,-0.035,-0.380
5880,-0.025,-0.385
5881,-0.035,-0.400
5882,-0.030,-0.395
5883,-0.040,-0.405
5884,-0.010,-0.395
5885,-0.010,-0.420
5886,-0.020,-0.400
5887,-0.015,-0.405
5888,-0.025,-0.420
5889,-0.010,-0.405
5890,0.000,-0.390
5891,0.000,-0.390
5892,0.000,-0.385
5893,0.010,-0.390
5894,0.015,-0.355
5895,0.020,-0.350
5896,0.045,-0.345
5897,0.065,-0.355
5898,0.070,-0.330
5899,0.095,-0.320
5900,0.100,-0.310
5901,0.120,-0.295
5902,0.125,-0.300
5903,0.130,-0.300
5904,0.145,-0.265
5905,0.170,-0.240
5906,0.155,-0.235
5907,0.195,-0.225
5908,0.175,-0.210
5909,0.165,-0.180
5910,0.150,-0.170
5911,0.130,-0.140
5912,0.135,-0.130
5913,0.110,-0.110
5914,0.085,-0.115
5915,0.060,-0.115
5916,0.060,-0.125
5917,0.030,-0.150
5918,0.020,-0.165
5919,0.005,-0.185
5920,0.000,-0.175
5921,-0.015,-0.190
5922,-0.010,-0.220
5923,-0.020,-0.220
5924,0.000,-0.230
5925,0.000,-0.220
5926,0.000,-0.220
5927,0.000,-0.225
5928,0.000,-0.250
5929,-0.010,-0.250
5930,-0.010,-0.230
5931,0.000,-0.245
5932,0.015,-0.220
5933,0.000,-0.220
5934,0.000,-0.230
5935,-0.025,-0.230
5936,-0.005,-0.230
5937,-0.005,-0.215
5938,-0.005,-0.225
5939,-0.005,-0.220
5940,-0.010,-0.235
5941,-0.020,-0.215
5942,-0.030,-0.230
5943,-0.025,-0.235
5944,-0.015,-0.240
5945,-0.030,-0.240
5946,-0.030,-0.245
5947,-0.030,-0.245
5948,-0.025,-0.230
5949,-0.020,-0.255
5950,-0.060,-0.250
5951,-0.030,-0.255
5952,-0.025,-0.270
5953,-0.035,-0.245
5954,-0.035,-0.240
5955,-0.060,-0.275
5956,-0.055,-0.250
5957,-0.045,-0.250
5958,-0.040,-0.260
5959,-0.060,-0.270
5960,-0.060,-0.275
5961,-0.070,-0.275
5962,-0.065,-0.270
5963,-0.070,-0.265
5964,-0.065,-0.260
5965,-0.065,-0.270
5966,-0.070,-0.255
5967,-0.080,-0.250
5968,-0.055,-0.265
5969,-0.065,-0.260
5970,-0.055,-0.255
5971,-0.060,-0.260
5972,-0.070,-0.265
5973,-0.055,-0.240
5974,-0.080,-0.275
5975,-0.075,-0.265
5976,-0.050,-0.260
5977,-0.060,-0.260
5978,-0.055,-0.255
5979,-0.050,-0.250
5980,-0.045,-0.250
5981,-0.040,-0.245
5982,-0.035,-0.200
5983,-0.020,-0.190
5984,-0.005,-0.180
5985,0.000,-0.155
5986,0.015,-0.130
5987,0.000,-0.120
5988,-0.020,-0.135
5989,-0.020,-0.180
5990,-0.055,-0.180
5991,-0.065,-0.190
5992,-0.070,-0.190
5993,-0.040,-0.210
5994,-0.050,-0.230
5995,-0.050,-0.295
5996,-0.055,-0.280
5997,-0.040,-0.295
5998,-0.050,-0.290
5999,-0.050,-0.290
6000,-0.045,-0.270
6001,-0.045,-0.280
6002,-0.035,-0.305
6003,-0.030,-0.460
6004,-0.030,-0.505
6005,-0.015,0.040
6006,0.095,1.095
6007,0.280,2.305
6008,0.405,2.595
6009,0.415,1.340
6010,0.140,0.460
6011,-0.105,0.085
6012,-0.090,-0.070
6013,-0.015,-0.155
6014,-0.005,-0.240
6015,-0.025,-0.280
6016,-0.015,-0.320
6017,-0.035,-0.320
6018,-0.015,-0.320
6019,-0.010,-0.340
6020,-0.015,-0.345
6021,0.000,-0.350
6022,0.000,-0.335
6023,0.005,-0.350
6024,0.010,-0.345
6025,0.010,-0.335
6026,0.025,-0.330
6027,0.025,-0.330
6028,0.025,-0.325
6029,0.035,-0.310
6030,0.045,-0.310
6031,0.075,-0.310
6032,0.055,-0.305
6033,0.060,-0.310
6034,0.075,-0.295
6035,0.105,-0.290
6036,0.100,-0.290
6037,0.125,-0.280
6038,0.140,-0.275
6039,0.150,-0.255
6040,0.180,-0.225
6041,0.175,-0.245
6042,0.195,-0.210
6043,0.195,-0.200
6044,0.195,-0.180
6045,0.195,-0.170
6046,0.205,-0.140
6047,0.190,-0.125
6048,0.180,-0.095
6049,0.165,-0.090
6050,0.165,-0.080
6051,0.115,-0.060
6052,0.100,-0.060
6053,0.075,-0.065
6054,0.065,-0.080
6055,0.040,-0.105
6056,0.010,-0.105
6057,0.020,-0.125
6058,0.000,-0.155
6059,0.010,-0.165
6060,-0.015,-0.170
6061,-0.015,-0.180
6062,0.000,-0.180
6063,0.000,-0.195
6064,0.005,-0.205
6065,-0.005,-0.205
6066,0.015,-0.195
6067,0.000,-0.210
6068,0.010,-0.195
6069,0.000,-0.195
6070,0.000,-0.195
6071,0.000,-0.180
6072,0.000,-0.185
6073,-0.005,-0.180
6074,-0.005,-0.180
6075,-0.010,-0.180
6076,0.000,-0.190
6077,-0.020,-0.195
6078,-0.015,-0.195
6079,-0.020,-0.190
6080,-0.030,-0.200
6081,-0.030,-0.200
6082,-0.025,-0.205
6083,-0.015,-0.200
6084,-0.025,-0.220
6085,-0.040,-0.220
6086,-0.040,-0.210
6087,-0.045,-0.225
6088,-0.020,-0.225
6089,-0.035,-0.230
6090,-0.045,-0.220
6091,-0.045,-0.235
6092,-0.035,-0.225
6093,-0.030,-0.225
6094,-0.045,-0.235
6095,-0.030,-0.215
6096,-0.055,-0.230
6097,-0.065,-0.250
6098,-0.050,-0.245
6099,-0.060,-0.230
6100,-0.065,-0.265
6101,-0.045,-0.260
6102,-0.050,-0.255
6103,-0.055,-0.235
6104,-0.045,-0.235
6105,-0.050,-0.225
6106,-0.045,-0.255
6107,-0.055,-0.260
6108,-0.050,-0.250
6109,-0.045,-0.245
6110,-0.040,-0.245
6111,-0.040,-0.260
6112,-0.035,-0.250
6113,-0.055,-0.230
6114,-0.045,-0.240
6115,-0.030,-0.250
6116,-0.070,-0.255
6117,-0.050,-0.250
6118,-0.040,-0.225
6119,-0.030,-0.190
6120,-0.005,-0.170
6121,-0.005,-0.140
6122,0.005,-0.130
6123,0.000,-0.115
6124,0.000,-0.110
6125,-0.010,-0.180
6126,-0.040,-0.210
6127,-0.060,-0.200
6128,-0.055,-0.190
6129,-0.065,-0.200
6130,-0.050,-0.235
6131,-0.045,-0.310
6132,-0.025,-0.285
6133,-0.045,-0.285
6134,-0.050,-0.285
6135,-0.045,-0.285
6136,-0.060,-0.295
6137,-0.045,-0.280
6138,-0.035,-0.305
6139,-0.060,-0.465
6140,-0.020,-0.550
6141,-0.040,0.015
6142,0.075,1.110
6143,0.285,2.345
6144,0.390,2.585
6145,0.430,1.240
6146,0.085,0.420
6147,-0.120,0.065
6148,-0.080,-0.085
6149,0.000,-0.200
6150,0.005,-0.275
6151,0.010,-0.330
6152,0.005,-0.340
6153,0.015,-0.340
6154,0.010,-0.365
6155,0.005,-0.365
6156,0.025,-0.370
6157,0.030,-0.375
6158,0.025,-0.355
6159,0.025,-0.360
6160,0.040,-0.360
6161,0.035,-0.360
6162,0.040,-0.370
6163,0.050,-0.360
6164,0.060,-0.355
6165,0.065,-0.345
6166,0.055,-0.350
6167,0.065,-0.335
6168,0.075,-0.335
6169,0.080,-0.335
6170,0.080,-0.335
6171,0.110,-0.310
6172,0.115,-0.320
6173,0.130,-0.310
6174,0.140,-0.290
6175,0.150,-0.275
6176,0.170,-0.260
6177,0.170,-0.270
6178,0.215,-0.250
6179,0.210,-0.235
6180,0.210,-0.215
6181,0.230,-0.190
6182,0.225,-0.165
6183,0.210,-0.145
6184,0.205,-0.125
6185,0.190,-0.090
6186,0.160,-0.070
6187,0.150,-0.080
6188,0.125,-0.070
6189,0.100,-0.065
6190,0.095,-0.085
6191,0.065,-0.130
6192,0.055,-0.125
6193,0.030,-0.145
6194,0.020,-0.160
6195,0.030,-0.180
6196,0.010,-0.205
6197,0.010,-0.200
6198,0.015,-0.220
6199,0.005,-0.220
6200,0.000,-0.230
6201,0.005,-0.240
6202,0.005,-0.240
6203,0.005,-0.245
6204,0.010,-0.250
6205,0.005,-0.230
6206,0.005,-0.240
6207,0.010,-0.235
6208,0.005,-0.230
6209,0.005,-0.240
6210,0.000,-0.250
6211,0.000,-0.270
6212,0.000,-0.255
6213,-0.010,-0.250
6214,0.000,-0.245
6215,0.000,-0.250
6216,-0.010,-0.245
6217,-0.010,-0.260
6218,-0.035,-0.265
6219,-0.020,-0.270
6220,-0.025,-0.270
6221,-0.025,-0.260
6222,-0.040,-0.280
6223,-0.045,-0.285
6224,-0.035,-0.290
6225,-0.045,-0.280
6226,-0.050,-0.260
6227,-0.035,-0.265
6228,-0.040,-0.285
6229,-0.050,-0.275
6230,-0.065,-0.275
6231,-0.045,-0.285
6232,-0.055,-0.290
6233,-0.035,-0.275
6234,-0.035,-0.290
6235,-0.055,-0.290
6236,-0.040,-0.285
6237,-0.040,-0.280
6238,-0.055,-0.280
6239,-0.040,-0.275
6240,-0.050,-0.270
6241,-0.055,-0.285
6242,-0.050,-0.290
6243,-0.050,-0.285
6244,-0.050,-0.290
6245,-0.060,-0.275
6246,-0.060,-0.290
6247,-0.040,-0.285
6248,-0.050,-0.275
6249,-0.045,-0.280
6250,-0.045,-0.285
6251,-0.070,-0.275
6252,-0.075,-0.280
6253,-0.050,-0.260
6254,-0.060,-0.250
6255,-0.040,-0.240
6256,-0.035,-0.245
6257,-0.025,-0.200
6258,-0.010,-0.195
6259,-0.005,-0.165
6260,0.010,-0.145
6261,0.000,-0.135
6262,-0.030,-0.165
6263,-0.040,-0.185
6264,-0.075,-0.205
6265,-0.075,-0.185
6266,-0.075,-0.190
6267,-0.085,-0.235
6268,-0.060,-0.285
6269,-0.060,-0.315
6270,-0.070,-0.315
6271,-0.050,-0.315
6272,-0.080,-0.315
6273,-0.070,-0.295
6274,-0.080,-0.300
6275,-0.065,-0.315
6276,-0.055,-0.320
6277,-0.050,-0.415
6278,-0.055,-0.515
6279,-0.030,-0.130
6280,0.045,0.765
6281,0.230,1.895
6282,0.350,2.570
6283,0.365,1.680
6284,0.225,0.635
6285,-0.060,0.125
6286,-0.150,-0.050
6287,-0.070,-0.175
6288,-0.030,-0.250
6289,-0.005,-0.305
6290,-0.020,-0.360
6291,0.000,-0.355
6292,-0.010,-0.395
6293,-0.010,-0.410
6294,-0.005,-0.395
6295,-0.005,-0.395
6296,-0.010,-0.395
6297,0.000,-0.410
6298,0.000,-0.415
6299,0.000,-0.405
6300,-0.005,-0.390
6301,-0.015,-0.410
6302,0.000,-0.410
6303,-0.005,-0.405
6304,0.020,-0.385
6305,0.005,-0.405
6306,0.015,-0.395
6307,0.010,-0.380
6308,0.015,-0.380
6309,0.045,-0.375
6310,0.055,-0.360
6311,0.035,-0.360
6312,0.070,-0.335
6313,0.060,-0.320
6314,0.085,-0.320
6315,0.105,-0.320
6316,0.110,-0.305
6317,0.095,-0.285
6318,0.135,-0.300
6319,0.115,-0.265
6320,0.140,-0.260
6321,0.135,-0.245
6322,0.135,-0.230
6323,0.130,-0.205
6324,0.100,-0.195
6325,0.095,-0.165
6326,0.060,-0.170
6327,0.040,-0.165
6328,0.035,-0.160
6329,0.015,-0.170
6330,0.005,-0.180
6331,0.000,-0.180
6332,-0.005,-0.210
6333,-0.010,-0.215
6334,-0.005,-0.240
6335,-0.025,-0.235
6336,-0.035,-0.255
6337,-0.035,-0.265
6338,-0.040,-0.260
6339,-0.025,-0.290
6340,-0.035,-0.285
6341,-0.035,-0.270
6342,-0.060,-0.275
6343,-0.045,-0.265
6344,-0.050,-0.280
6345,-0.030,-0.270
6346,-0.040,-0.270
6347,-0.055,-0.265
6348,-0.030,-0.265
6349,-0.055,-0.275
6350,-0.040,-0.265
6351,-0.045,-0.255
6352,-0.065,-0.270
6353,-0.055,-0.270
6354,-0.045,-0.255
6355,-0.065,-0.270
6356,-0.055,-0.265
6357,-0.065,-0.280
6358,-0.085,-0.275
6359,-0.075,-0.295
6360,-0.055,-0.280
6361,-0.085,-0.285
6362,-0.065,-0.295
6363,-0.075,-0.300
6364,-0.075,-0.285
6365,-0.085,-0.300
6366,-0.070,-0.300
6367,-0.075,-0.290
6368,-0.070,-0.275
6369,-0.090,-0.300
6370,-0.070,-0.305
6371,-0.080,-0.285
6372,-0.090,-0.295
6373,-0.090,-0.295
6374,-0.080,-0.285
6375,-0.075,-0.290
6376,-0.085,-0.280
6377,-0.070,-0.295
6378,-0.075,-0.290
6379,-0.085,-0.290
6380,-0.080,-0.290
6381,-0.070,-0.285
6382,-0.075,-0.295
6383,-0.085,-0.285
6384,-0.075,-0.295
6385,-0.060,-0.280
6386,-0.065,-0.240
6387,-0.055,-0.225
6388,-0.025,-0.205
6389,-0.020,-0.170
6390,-0.015,-0.155
6391,-0.025,-0.135
6392,-0.040,-0.165
6393,-0.040,-0.205
6394,-0.090,-0.215
6395,-0.060,-0.205
6396,-0.090,-0.215
6397,-0.085,-0.225
6398,-0.070,-0.275
6399,-0.070,-0.315
6400,-0.085,-0.330
6401,-0.075,-0.330
6402,-0.075,-0.310
6403,-0.085,-0.315
6404,-0.070,-0.315
6405,-0.075,-0.310
6406,-0.075,-0.340
6407,-0.055,-0.500
6408,-0.055,-0.535
6409,-0.055,0.045
6410,0.075,1.115
6411,0.270,2.310
6412,0.405,2.490
6413,0.405,1.280
6414,0.105,0.405
6415,-0.135,0.040
6416,-0.105,-0.110
6417,-0.030,-0.240
6418,-0.010,-0.290
6419,-0.025,-0.340
6420,0.000,-0.365
6421,-0.020,-0.355
6422,-0.025,-0.365
6423,-0.015,-0.375
6424,-0.025,-0.380
6425,-0.010,-0.385
6426,0.000,-0.375
6427,-0.010,-0.375
6428,-0.005,-0.390
6429,-0.010,-0.370
6430,0.000,-0.370
6431,0.005,-0.360
6432,0.000,-0.365
6433,0.000,-0.355
6434,0.005,-0.355
6435,0.005,-0.355
6436,0.025,-0.335
6437,0.035,-0.335
6438,0.040,-0.350
6439,0.045,-0.340
6440,0.070,-0.320
6441,0.075,-0.315
6442,0.100,-0.295
6443,0.100,-0.280
6444,0.115,-0.280
6445,0.145,-0.275
6446,0.135,-0.260
6447,0.160,-0.225
6448,0.180,-0.215
6449,0.180,-0.190
6450,0.150,-0.170
6451,0.165,-0.165
6452,0.155,-0.120
6453,0.130,-0.100
6454,0.100,-0.080
6455,0.095,-0.070
6456,0.070,-0.080
6457,0.020,-0.085
6458,0.005,-0.110
6459,0.000,-0.125
6460,0.005,-0.140
6461,-0.040,-0.170
6462,-0.030,-0.180
6463,-0.035,-0.190
6464,-0.060,-0.210
6465,-0.055,-0.210
6466,-0.065,-0.220
6467,-0.040,-0.225
6468,-0.050,-0.240
6469,-0.045,-0.240
6470,-0.055,-0.250
6471,-0.055,-0.250
6472,-0.060,-0.245
6473,-0.080,-0.235
6474,-0.055,-0.245
6475,-0.070,-0.245
6476,-0.075,-0.250
6477,-0.085,-0.255
6478,-0.085,-0.255
6479,-0.075,-0.255
6480,-0.100,-0.245
6481,-0.095,-0.240
6482,-0.085,-0.255
6483,-0.095,-0.240
6484,-0.095,-0.255
6485,-0.105,-0.260
6486,-0.120,-0.250
6487,-0.095,-0.245
6488,-0.105,-0.260
6489,-0.115,-0.280
6490,-0.115,-0.275
6491,-0.115,-0.255
6492,-0.115,-0.275
6493,-0.125,-0.260
6494,-0.110,-0.275
6495,-0.115,-0.265
6496,-0.120,-0.265
6497,-0.115,-0.265
6498,-0.115,-0.275
6499,-0.130,-0.270
6500,-0.125,-0.285
6501,-0.120,-0.270
6502,-0.115,-0.285
6503,-0.125,-0.275
6504,-0.135,-0.280
6505,-0.125,-0.280
6506,-0.125,-0.275
6507,-0.130,-0.275
6508,-0.130,-0.280
6509,-0.125,-0.265
6510,-0.120,-0.275
6511,-0.130,-0.285
6512,-0.130,-0.270
6513,-0.135,-0.270
6514,-0.120,-0.270
6515,-0.130,-0.280
6516,-0.115,-0.270
6517,-0.110,-0.235
6518,-0.110,-0.215
6519,-0.100,-0.195
6520,-0.080,-0.195
6521,-0.075,-0.145
6522,-0.100,-0.130
6523,-0.100,-0.130
6524,-0.095,-0.175
6525,-0.125,-0.210
6526,-0.140,-0.195
6527,-0.150,-0.200
6528,-0.145,-0.210
6529,-0.135,-0.240
6530,-0.130,-0.280
6531,-0.115,-0.305
6532,-0.130,-0.300
6533,-0.135,-0.300
6534,-0.135,-0.290
6535,-0.140,-0.300
6536,-0.140,-0.275
6537,-0.125,-0.285
6538,-0.125,-0.355
6539,-0.125,-0.550
6540,-0.140,-0.375
6541,-0.100,0.390
6542,0.070,1.565
6543,0.250,2.610
6544,0.360,2.220
6545,0.275,1.040
6546,-0.055,0.340
6547,-0.245,0.035
6548,-0.155,-0.110
6549,-0.080,-0.230
6550,-0.090,-0.290
6551,-0.095,-0.330
6552,-0.095,-0.355
6553,-0.095,-0.365
6554,-0.090,-0.365
6555,-0.105,-0.380
6556,-0.110,-0.370
6557,-0.085,-0.370
6558,-0.080,-0.385
6559,-0.090,-0.385
6560,-0.085,-0.385
6561,-0.105,-0.390
6562,-0.085,-0.385
6563,-0.105,-0.370
6564,-0.075,-0.375
6565,-0.080,-0.380
6566,-0.070,-0.375
6567,-0.060,-0.360
6568,-0.050,-0.345
6569,-0.045,-0.350
6570,-0.035,-0.355
6571,-0.025,-0.330
6572,-0.015,-0.340
6573,0.000,-0.315
6574,0.015,-0.310
6575,0.015,-0.320
6576,0.035,-0.295
6577,0.035,-0.295
6578,0.045,-0.265
6579,0.060,-0.250
6580,0.070,-0.235
6581,0.070,-0.205
6582,0.070,-0.205
6583,0.050,-0.175
6584,0.055,-0.160
6585,0.025,-0.135
6586,0.030,-0.115
6587,0.000,-0.120
6588,-0.015,-0.110
6589,-0.055,-0.115
6590,-0.080,-0.125
6591,-0.085,-0.160
6592,-0.095,-0.165
6593,-0.110,-0.185
6594,-0.130,-0.190
6595,-0.145,-0.210
6596,-0.130,-0.220
6597,-0.130,-0.235
6598,-0.140,-0.255
6599,-0.150,-0.255
6600,-0.140,-0.255
6601,-0.155,-0.265
6602,-0.170,-0.275
6603,-0.145,-0.290
6604,-0.135,-0.275
6605,-0.150,-0.275
6606,-0.165,-0.270
6607,-0.175,-0.295
6608,-0.160,-0.280
6609,-0.165,-0.280
6610,-0.180,-0.290
6611,-0.180,-0.270
6612,-0.170,-0.290
6613,-0.155,-0.285
6614,-0.180,-0.285
6615,-0.205,-0.305
6616,-0.185,-0.285
6617,-0.200,-0.280
6618,-0.205,-0.290
6619,-0.210,-0.315
6620,-0.200,-0.305
6621,-0.205,-0.300
6622,-0.215,-0.310
6623,-0.210,-0.330
6624,-0.220,-0.325
6625,-0.235,-0.315
6626,-0.205,-0.320
6627,-0.220,-0.320
6628,-0.245,-0.315
6629,-0.235,-0.320
6630,-0.230,-0.325
6631,-0.225,-0.320
6632,-0.225,-0.340
6633,-0.240,-0.325
6634,-0.235,-0.340
6635,-0.245,-0.320
6636,-0.235,-0.330
6637,-0.205,-0.325
6638,-0.235,-0.335
6639,-0.245,-0.340
6640,-0.255,-0.340
6641,-0.240,-0.325
6642,-0.225,-0.320
6643,-0.235,-0.315
6644,-0.240,-0.320
6645,-0.240,-0.345
6646,-0.230,-0.330
6647,-0.245,-0.340
6648,-0.250,-0.330
6649,-0.250,-0.345
6650,-0.245,-0.325
6651,-0.250,-0.290
6652,-0.220,-0.275
6653,-0.200,-0.260
6654,-0.185,-0.210
6655,-0.200,-0.210
6656,-0.210,-0.200
6657,-0.225,-0.220
6658,-0.230,-0.275
6659,-0.265,-0.280
6660,-0.255,-0.280
6661,-0.255,-0.265
6662,-0.225,-0.300
6663,-0.245,-0.335
6664,-0.260,-0.360
6665,-0.255,-0.355
6666,-0.255,-0.350
6667,-0.240,-0.370
6668,-0.240,-0.360
6669,-0.250,-0.350
6670,-0.230,-0.355
6671,-0.260,-0.400
6672,-0.250,-0.550
6673,-0.225,-0.430
6674,-0.195,0.290
6675,-0.025,1.385
6676,0.115,2.435
6677,0.195,2.170
6678,0.150,0.920
6679,-0.130,0.190
6680,-0.345,-0.040
6681,-0.280,-0.160
6682,-0.230,-0.275
6683,-0.200,-0.340
6684,-0.220,-0.390
6685,-0.225,-0.435
6686,-0.225,-0.435
6687,-0.220,-0.435
6688,-0.220,-0.440
6689,-0.240,-0.450
6690,-0.205,-0.440
6691,-0.225,-0.445
6692,-0.210,-0.450
6693,-0.225,-0.455
6694,-0.225,-0.445
6695,-0.215,-0.435
6696,-0.215,-0.435
6697,-0.220,-0.430
6698,-0.215,-0.435
6699,-0.190,-0.445
6700,-0.205,-0.425
6701,-0.180,-0.410
6702,-0.195,-0.410
6703,-0.160,-0.390
6704,-0.175,-0.380
6705,-0.135,-0.375
6706,-0.140,-0.360
6707,-0.125,-0.355
6708,-0.100,-0.345
6709,-0.085,-0.320
6710,-0.070,-0.320
6711,-0.070,-0.320
6712,-0.055,-0.305
6713,-0.070,-0.295
6714,-0.060,-0.290
6715,-0.050,-0.285
6716,-0.060,-0.280
6717,-0.090,-0.250
6718,-0.110,-0.215
6719,-0.120,-0.205
6720,-0.130,-0.180
6721,-0.160,-0.175
6722,-0.170,-0.175
6723,-0.180,-0.185
6724,-0.205,-0.200
6725,-0.215,-0.195
6726,-0.215,-0.240
6727,-0.230,-0.265
6728,-0.230,-0.265
6729,-0.245,-0.270
6730,-0.245,-0.290
6731,-0.235,-0.305
6732,-0.245,-0.285
6733,-0.250,-0.305
6734,-0.245,-0.300
6735,-0.255,-0.305
6736,-0.240,-0.275
6737,-0.245,-0.295
6738,-0.250,-0.290
6739,-0.240,-0.300
6740,-0.250,-0.295
6741,-0.270,-0.305
6742,-0.265,-0.280
6743,-0.260,-0.280
6744,-0.255,-0.270
6745,-0.275,-0.285
6746,-0.260,-0.275
6747,-0.270,-0.290
6748,-0.270,-0.285
6749,-0.280,-0.290
6750,-0.280,-0.290
6751,-0.280,-0.290
6752,-0.275,-0.290
6753,-0.270,-0.305
6754,-0.270,-0.300
6755,-0.275,-0.305
6756,-0.280,-0.310
6757,-0.275,-0.305
6758,-0.285,-0.295
6759,-0.300,-0.310
6760,-0.300,-0.310
6761,-0.270,-0.305
6762,-0.270,-0.305
6763,-0.300,-0.305
6764,-0.270,-0.310
6765,-0.270,-0.315
6766,-0.300,-0.310
6767,-0.285,-0.320
6768,-0.275,-0.320
6769,-0.265,-0.320
6770,-0.285,-0.320
6771,-0.290,-0.295
6772,-0.290,-0.310
6773,-0.300,-0.315
6774,-0.275,-0.300
6775,-0.270,-0.310
6776,-0.285,-0.315
6777,-0.270,-0.295
6778,-0.270,-0.295
6779,-0.285,-0.310
6780,-0.260,-0.300
6781,-0.290,-0.285
6782,-0.260,-0.245
6783,-0.245,-0.240
6784,-0.225,-0.225
6785,-0.225,-0.200
6786,-0.210,-0.170
6787,-0.230,-0.170
6788,-0.245,-0.205
6789,-0.275,-0.235
6790,-0.280,-0.240
6791,-0.295,-0.235
6792,-0.290,-0.240
6793,-0.280,-0.250
6794,-0.280,-0.310
6795,-0.270,-0.325
6796,-0.280,-0.330
6797,-0.280,-0.330
6798,-0.270,-0.330
6799,-0.285,-0.315
6800,-0.275,-0.315
6801,-0.280,-0.315
6802,-0.275,-0.350
6803,-0.260,-0.485
6804,-0.275,-0.570
6805,-0.265,-0.055
6806,-0.155,0.955
6807,0.050,2.155
6808,0.190,2.740
6809,0.215,1.595
6810,0.015,0.655
6811,-0.305,0.155
6812,-0.365,-0.045
6813,-0.265,-0.165
6814,-0.220,-0.260
6815,-0.230,-0.320
6816,-0.220,-0.365
6817,-0.235,-0.380
6818,-0.240,-0.395
6819,-0.235,-0.405
6820,-0.235,-0.395
6821,-0.240,-0.405
6822,-0.235,-0.395
6823,-0.225,-0.405
6824,-0.240,-0.390
6825,-0.225,-0.395
6826,-0.220,-0.405
6827,-0.200,-0.395
6828,-0.210,-0.400
6829,-0.190,-0.395
6830,-0.190,-0.400
6831,-0.190,-0.390
6832,-0.190,-0.385
6833,-0.185,-0.380
6834,-0.185,-0.375
6835,-0.165,-0.375
6836,-0.145,-0.365
6837,-0.125,-0.340
6838,-0.125,-0.335
6839,-0.110,-0.325
6840,-0.100,-0.335
6841,-0.085,-0.310
6842,-0.075,-0.295
6843,-0.045,-0.295
6844,-0.030,-0.280
6845,-0.015,-0.265
6846,-0.025,-0.240
6847,-0.055,-0.220
6848,-0.040,-0.220
6849,-0.045,-0.195
6850,-0.055,-0.150
6851,-0.075,-0.135
6852,-0.100,-0.145
6853,-0.110,-0.135
6854,-0.150,-0.140
6855,-0.170,-0.160
6856,-0.180,-0.150
6857,-0.225,-0.185
6858,-0.240,-0.205
6859,-0.255,-0.215
6860,-0.255,-0.240
6861,-0.250,-0.255
6862,-0.265,-0.255
6863,-0.240,-0.265
6864,-0.260,-0.270
6865,-0.270,-0.280
6866,-0.270,-0.280
6867,-0.260,-0.285
6868,-0.270,-0.280
6869,-0.250,-0.295
6870,-0.260,-0.290
6871,-0.260,-0.290
6872,-0.260,-0.280
6873,-0.270,-0.280
6874,-0.275,-0.285
6875,-0.290,-0.285
6876,-0.260,-0.285
6877,-0.285,-0.270
6878,-0.295,-0.275
6879,-0.290,-0.280
6880,-0.265,-0.280
6881,-0.285,-0.280
6882,-0.280,-0.285
6883,-0.295,-0.295
6884,-0.285,-0.290
6885,-0.280,-0.285
6886,-0.300,-0.295
6887,-0.305,-0.300
6888,-0.305,-0.295
6889,-0.315,-0.300
6890,-0.300,-0.290
6891,-0.295,-0.310
6892,-0.325,-0.300
6893,-0.320,-0.310
6894,-0.300,-0.310
6895,-0.300,-0.290
6896,-0.305,-0.320
6897,-0.300,-0.305
6898,-0.300,-0.310
6899,-0.315,-0.305
6900,-0.305,-0.330
6901,-0.305,-0.300
6902,-0.300,-0.305
6903,-0.325,-0.305
6904,-0.305,-0.305
6905,-0.305,-0.300
6906,-0.315,-0.290
6907,-0.310,-0.290
6908,-0.325,-0.285
6909,-0.310,-0.280
6910,-0.315,-0.280
6911,-0.300,-0.290
6912,-0.300,-0.305
6913,-0.310,-0.295
6914,-0.325,-0.280
6915,-0.320,-0.290
6916,-0.305,-0.275
6917,-0.310,-0.275
6918,-0.295,-0.255
6919,-0.265,-0.235
6920,-0.270,-0.210
6921,-0.245,-0.195
6922,-0.235,-0.150
6923,-0.240,-0.140
6924,-0.265,-0.165
6925,-0.285,-0.195
6926,-0.295,-0.225
6927,-0.310,-0.210
6928,-0.325,-0.200
6929,-0.330,-0.215
6930,-0.290,-0.255
6931,-0.285,-0.305
6932,-0.290,-0.310
6933,-0.315,-0.300
6934,-0.310,-0.305
6935,-0.305,-0.295
6936,-0.290,-0.295
6937,-0.305,-0.300
6938,-0.310,-0.290
6939,-0.295,-0.445
6940,-0.295,-0.575
6941,-0.305,-0.080
6942,-0.195,0.945
6943,0.005,2.125
6944,0.135,2.555
6945,0.145,1.440
6946,-0.080,0.540
6947,-0.370,0.110
6948,-0.385,-0.085
6949,-0.290,-0.230
6950,-0.240,-0.285
6951,-0.275,-0.335
6952,-0.275,-0.375
6953,-0.270,-0.385
6954,-0.285,-0.400
6955,-0.285,-0.390
6956,-0.275,-0.395
6957,-0.270,-0.405
6958,-0.265,-0.395
6959,-0.260,-0.410
6960,-0.275,-0.410
6961,-0.260,-0.420
6962,-0.245,-0.410
6963,-0.250,-0.410
6964,-0.240,-0.410
6965,-0.245,-0.405
6966,-0.235,-0.390
6967,-0.230,-0.400
6968,-0.220,-0.390
6969,-0.220,-0.380
6970,-0.210,-0.360
6971,-0.195,-0.375
6972,-0.180,-0.360
6973,-0.175,-0.360
6974,-0.155,-0.340
6975,-0.135,-0.320
6976,-0.115,-0.320
6977,-0.115,-0.315
6978,-0.105,-0.305
6979,-0.085,-0.285
6980,-0.090,-0.270
6981,-0.090,-0.255
6982,-0.090,-0.230
6983,-0.080,-0.215
6984,-0.095,-0.190
6985,-0.120,-0.160
6986,-0.145,-0.150
6987,-0.170,-0.150
6988,-0.185,-0.145
6989,-0.205,-0.145
6990,-0.240,-0.160
6991,-0.245,-0.170
6992,-0.260,-0.200
6993,-0.270,-0.215
6994,-0.280,-0.240
6995,-0.310,-0.245
6996,-0.290,-0.240
6997,-0.305,-0.265
6998,-0.310,-0.275
6999,-0.305,-0.280
7000,-0.315,-0.290
7001,-0.300,-0.295
7002,-0.305,-0.300
7003,-0.305,-0.280
7004,-0.305,-0.295
7005,-0.295,-0.300
7006,-0.315,-0.295
7007,-0.300,-0.295
7008,-0.320,-0.300
7009,-0.315,-0.300
7010,-0.305,-0.290
7011,-0.320,-0.315
7012,-0.320,-0.305
7013,-0.315,-0.310
7014,-0.315,-0.280
7015,-0.315,-0.305
7016,-0.315,-0.300
7017,-0.310,-0.295
7018,-0.330,-0.310
7019,-0.315,-0.295
7020,-0.320,-0.290
7021,-0.330,-0.315
7022,-0.330,-0.325
7023,-0.350,-0.320
7024,-0.345,-0.320
7025,-0.345,-0.330
7026,-0.360,-0.320
7027,-0.355,-0.325
7028,-0.355,-0.310
7029,-0.345,-0.300
7030,-0.350,-0.315
7031,-0.355,-0.320
7032,-0.335,-0.320
7033,-0.350,-0.310
7034,-0.350,-0.330
7035,-0.355,-0.310
7036,-0.325,-0.305
7037,-0.350,-0.310
7038,-0.320,-0.295
7039,-0.345,-0.310
7040,-0.345,-0.320
7041,-0.315,-0.330
7042,-0.345,-0.315
7043,-0.350,-0.315
7044,-0.335,-0.310
7045,-0.335,-0.325
7046,-0.340,-0.295
7047,-0.345,-0.265
7048,-0.325,-0.250
7049,-0.300,-0.240
7050,-0.285,-0.220
7051,-0.280,-0.185
7052,-0.275,-0.165
7053,-0.285,-0.170
7054,-0.305,-0.230
7055,-0.325,-0.245
7056,-0.335,-0.240
7057,-0.340,-0.240
7058,-0.340,-0.265
7059,-0.340,-0.300
7060,-0.345,-0.335
7061,-0.330,-0.335
7062,-0.355,-0.330
7063,-0.345,-0.320
7064,-0.335,-0.330
7065,-0.330,-0.305
7066,-0.335,-0.330
7067,-0.320,-0.315
7068,-0.335,-0.410
7069,-0.325,-0.545
7070,-0.305,-0.170
7071,-0.220,0.750
7072,-0.035,1.865
7073,0.070,2.480
7074,0.080,1.500
7075,-0.070,0.485
7076,-0.340,0.055
7077,-0.445,-0.095
7078,-0.315,-0.220
7079,-0.300,-0.310
7080,-0.315,-0.340
7081,-0.330,-0.365
7082,-0.335,-0.390
7083,-0.330,-0.395
7084,-0.320,-0.390
7085,-0.310,-0.410
7086,-0.320,-0.420
7087,-0.320,-0.415
7088,-0.300,-0.425
7089,-0.310,-0.430
7090,-0.295,-0.405
7091,-0.295,-0.415
7092,-0.295,-0.420
7093,-0.300,-0.415
7094,-0.285,-0.410
7095,-0.295,-0.410
7096,-0.285,-0.400
7097,-0.280,-0.420
7098,-0.270,-0.385
7099,-0.260,-0.380
7100,-0.250,-0.365
7101,-0.215,-0.360
7102,-0.225,-0.360
7103,-0.200,-0.355
7104,-0.190,-0.335
7105,-0.190,-0.325
7106,-0.165,-0.310
7107,-0.160,-0.310
7108,-0.155,-0.300
7109,-0.145,-0.315
7110,-0.140,-0.290
7111,-0.145,-0.285
7112,-0.150,-0.275
7113,-0.160,-0.255
7114,-0.180,-0.235
7115,-0.205,-0.220
7116,-0.215,-0.210
7117,-0.225,-0.190
7118,-0.250,-0.180
7119,-0.295,-0.185
7120,-0.285,-0.205
7121,-0.300,-0.215
7122,-0.315,-0.225
7123,-0.315,-0.250
7124,-0.330,-0.260
7125,-0.350,-0.270
7126,-0.340,-0.250
7127,-0.330,-0.280
7128,-0.340,-0.275
7129,-0.330,-0.265
7130,-0.335,-0.280
7131,-0.315,-0.265
7132,-0.330,-0.265
7133,-0.330,-0.270
7134,-0.335,-0.250
7135,-0.315,-0.255
7136,-0.325,-0.260
7137,-0.345,-0.260
7138,-0.340,-0.255
7139,-0.335,-0.255
7140,-0.335,-0.265
7141,-0.325,-0.265
7142,-0.340,-0.255
7143,-0.335,-0.260
7144,-0.335,-0.275
7145,-0.340,-0.270
7146,-0.345,-0.285
7147,-0.335,-0.290
7148,-0.355,-0.275
7149,-0.350,-0.275
7150,-0.345,-0.280
7151,-0.335,-0.295
7152,-0.340,-0.290
7153,-0.340,-0.290
7154,-0.350,-0.295
7155,-0.365,-0.300
7156,-0.365,-0.275
7157,-0.360,-0.285
7158,-0.365,-0.285
7159,-0.360,-0.300
7160,-0.380,-0.290
7161,-0.345,-0.280
7162,-0.355,-0.275
7163,-0.360,-0.280
7164,-0.355,-0.275
7165,-0.365,-0.265
7166,-0.370,-0.275
7167,-0.365,-0.270
7168,-0.375,-0.270
7169,-0.350,-0.295
7170,-0.355,-0.270
7171,-0.355,-0.290
7172,-0.360,-0.260
7173,-0.365,-0.280
7174,-0.365,-0.290
7175,-0.345,-0.270
7176,-0.355,-0.265
7177,-0.350,-0.260
7178,-0.340,-0.235
7179,-0.325,-0.220
7180,-0.295,-0.190
7181,-0.295,-0.190
7182,-0.270,-0.155
7183,-0.270,-0.110
7184,-0.290,-0.130
7185,-0.315,-0.155
7186,-0.330,-0.195
7187,-0.340,-0.195
7188,-0.355,-0.175
7189,-0.330,-0.180
7190,-0.325,-0.205
7191,-0.320,-0.270
7192,-0.315,-0.295
7193,-0.325,-0.290
7194,-0.340,-0.290
7195,-0.335,-0.285
7196,-0.325,-0.285
7197,-0.325,-0.275
7198,-0.330,-0.285
7199,-0.340,-0.310
7200,-0.325,-0.480
7201,-0.320,-0.505
7202,-0.330,0.100
7203,-0.170,1.200
7204,0.005,2.385
7205,0.120,2.480
7206,0.105,1.225
7207,-0.185,0.425
7208,-0.425,0.075
7209,-0.390,-0.065
7210,-0.295,-0.205
7211,-0.310,-0.285
7212,-0.300,-0.315
7213,-0.295,-0.345
7214,-0.305,-0.365
7215,-0.320,-0.370
7216,-0.300,-0.375
7217,-0.285,-0.390
7218,-0.300,-0.385
7219,-0.290,-0.385
7220,-0.275,-0.390
7221,-0.275,-0.390
7222,-0.265,-0.390
7223,-0.260,-0.380
7224,-0.255,-0.390
7225,-0.245,-0.380
7226,-0.250,-0.385
7227,-0.230,-0.365
7228,-0.225,-0.355
7229,-0.235,-0.355
7230,-0.225,-0.355
7231,-0.210,-0.335
7232,-0.190,-0.345
7233,-0.195,-0.325
7234,-0.160,-0.320
7235,-0.150,-0.315
7236,-0.140,-0.305
7237,-0.125,-0.305
7238,-0.125,-0.275
7239,-0.110,-0.275
7240,-0.100,-0.260
7241,-0.075,-0.220
7242,-0.070,-0.220
7243,-0.070,-0.205
7244,-0.085,-0.180
7245,-0.100,-0.180
7246,-0.125,-0.135
7247,-0.135,-0.120
7248,-0.150,-0.110
7249,-0.185,-0.095
7250,-0.210,-0.110
7251,-0.235,-0.140
7252,-0.270,-0.135
7253,-0.275,-0.165
7254,-0.275,-0.170
7255,-0.300,-0.200
7256,-0.305,-0.215
7257,-0.310,-0.230
7258,-0.295,-0.240
7259,-0.300,-0.245
7260,-0.295,-0.270
7261,-0.305,-0.265
7262,-0.305,-0.265
7263,-0.310,-0.260
7264,-0.310,-0.275
7265,-0.300,-0.265
7266,-0.310,-0.270
7267,-0.300,-0.275
7268,-0.305,-0.270
7269,-0.325,-0.250
7270,-0.305,-0.260
7271,-0.300,-0.250
7272,-0.305,-0.270
7273,-0.305,-0.260
7274,-0.300,-0.270
7275,-0.290,-0.270
7276,-0.315,-0.250
7277,-0.310,-0.270
7278,-0.305,-0.275
7279,-0.295,-0.270
7280,-0.325,-0.270
7281,-0.315,-0.265
7282,-0.315,-0.285
7283,-0.310,-0.265
7284,-0.310,-0.265
7285,-0.335,-0.270
7286,-0.325,-0.285
7287,-0.315,-0.275
7288,-0.325,-0.275
7289,-0.315,-0.270
7290,-0.315,-0.280
7291,-0.325,-0.270
7292,-0.315,-0.270
7293,-0.310,-0.275
7294,-0.335,-0.250
7295,-0.310,-0.265
7296,-0.320,-0.250
7297,-0.305,-0.260
7298,-0.320,-0.240
7299,-0.305,-0.275
7300,-0.300,-0.270
7301,-0.310,-0.250
7302,-0.315,-0.270
7303,-0.315,-0.240
7304,-0.310,-0.255
7305,-0.310,-0.255
7306,-0.330,-0.265
7307,-0.325,-0.280
7308,-0.315,-0.265
7309,-0.320,-0.260
7310,-0.310,-0.260
7311,-0.295,-0.255
7312,-0.310,-0.245
7313,-0.280,-0.235
7314,-0.285,-0.210
7315,-0.260,-0.185
7316,-0.250,-0.160
7317,-0.250,-0.135
7318,-0.235,-0.110
7319,-0.220,-0.100
7320,-0.235,-0.135
7321,-0.280,-0.170
7322,-0.290,-0.165
7323,-0.290,-0.165
7324,-0.300,-0.165
7325,-0.285,-0.215
7326,-0.265,-0.250
7327,-0.275,-0.280
7328,-0.285,-0.275
7329,-0.290,-0.275
7330,-0.295,-0.290
7331,-0.295,-0.295
7332,-0.310,-0.280
7333,-0.300,-0.275
7334,-0.300,-0.300
7335,-0.285,-0.435
7336,-0.285,-0.515
7337,-0.290,-0.035
7338,-0.195,0.965
7339,0.000,2.115
7340,0.130,2.495
7341,0.125,1.280
7342,-0.135,0.450
7343,-0.385,0.075
7344,-0.360,-0.085
7345,-0.280,-0.180
7346,-0.270,-0.265
7347,-0.285,-0.305
7348,-0.300,-0.330
7349,-0.290,-0.350
7350,-0.280,-0.370
7351,-0.275,-0.365
7352,-0.265,-0.365
7353,-0.275,-0.370
7354,-0.275,-0.360
7355,-0.260,-0.355
7356,-0.275,-0.355
7357,-0.275,-0.370
7358,-0.260,-0.385
7359,-0.265,-0.380
7360,-0.260,-0.370
7361,-0.250,-0.390
7362,-0.255,-0.375
7363,-0.240,-0.365
7364,-0.235,-0.375
7365,-0.225,-0.360
7366,-0.215,-0.350
7367,-0.215,-0.330
7368,-0.205,-0.340
7369,-0.190,-0.335
7370,-0.180,-0.325
7371,-0.160,-0.305
7372,-0.155,-0.310
7373,-0.120,-0.300
7374,-0.110,-0.285
7375,-0.100,-0.275
7376,-0.100,-0.265
7377,-0.095,-0.235
7378,-0.095,-0.255
7379,-0.105,-0.215
7380,-0.125,-0.200
7381,-0.125,-0.170
7382,-0.145,-0.160
7383,-0.160,-0.145
7384,-0.195,-0.145
7385,-0.215,-0.140
7386,-0.230,-0.145
7387,-0.260,-0.145
7388,-0.265,-0.150
7389,-0.280,-0.195
7390,-0.290,-0.215
7391,-0.300,-0.220
7392,-0.295,-0.250
7393,-0.295,-0.260
7394,-0.305,-0.280
7395,-0.295,-0.270
7396,-0.300,-0.285
7397,-0.300,-0.285
7398,-0.295,-0.270
7399,-0.310,-0.275
7400,-0.295,-0.270
7401,-0.315,-0.290
7402,-0.325,-0.295
7403,-0.300,-0.285
7404,-0.295,-0.285
7405,-0.300,-0.275
7406,-0.295,-0.280
7407,-0.305,-0.270
7408,-0.300,-0.265
7409,-0.315,-0.275
7410,-0.325,-0.275
7411,-0.310,-0.280
7412,-0.330,-0.285
7413,-0.335,-0.290
7414,-0.320,-0.285
7415,-0.325,-0.280
7416,-0.320,-0.270
7417,-0.315,-0.275
7418,-0.330,-0.300
7419,-0.320,-0.315
7420,-0.345,-0.285
7421,-0.325,-0.290
7422,-0.335,-0.320
7423,-0.330,-0.330
7424,-0.335,-0.310
7425,-0.335,-0.315
7426,-0.325,-0.305
7427,-0.325,-0.310
7428,-0.310,-0.300
7429,-0.325,-0.305
7430,-0.320,-0.300
7431,-0.320,-0.300
7432,-0.320,-0.320
7433,-0.345,-0.305
7434,-0.360,-0.300
7435,-0.320,-0.300
7436,-0.340,-0.310
7437,-0.340,-0.310
7438,-0.320,-0.310
7439,-0.325,-0.310
7440,-0.345,-0.305
7441,-0.335,-0.305
7442,-0.330,-0.285
7443,-0.320,-0.305
7444,-0.315,-0.285
7445,-0.330,-0.285
7446,-0.330,-0.300
7447,-0.325,-0.280
7448,-0.320,-0.240
7449,-0.290,-0.235
7450,-0.280,-0.215
7451,-0.265,-0.175
7452,-0.260,-0.160
7453,-0.250,-0.140
7454,-0.270,-0.155
7455,-0.295,-0.200
7456,-0.310,-0.215
7457,-0.315,-0.205
7458,-0.325,-0.225
7459,-0.315,-0.230
7460,-0.310,-0.295
7461,-0.320,-0.320
7462,-0.320,-0.320
7463,-0.325,-0.320
7464,-0.315,-0.310
7465,-0.335,-0.320
7466,-0.320,-0.300
7467,-0.330,-0.325
7468,-0.340,-0.320
7469,-0.330,-0.410
7470,-0.315,-0.545
7471,-0.310,-0.185
7472,-0.220,0.670
7473,-0.045,1.780
7474,0.070,2.555
7475,0.110,1.695
7476,-0.040,0.635
7477,-0.320,0.120
7478,-0.420,-0.065
7479,-0.330,-0.180
7480,-0.295,-0.275
7481,-0.300,-0.325
7482,-0.285,-0.365
7483,-0.305,-0.370
7484,-0.305,-0.385
7485,-0.295,-0.385
7486,-0.310,-0.405
7487,-0.305,-0.395
7488,-0.310,-0.390
7489,-0.300,-0.400
7490,-0.300,-0.430
7491,-0.295,-0.430
7492,-0.285,-0.415
7493,-0.305,-0.430
7494,-0.280,-0.405
7495,-0.280,-0.400
7496,-0.270,-0.405
7497,-0.280,-0.400
7498,-0.275,-0.385
7499,-0.260,-0.385
7500,-0.250,-0.390
7501,-0.240,-0.380
7502,-0.225,-0.365
7503,-0.215,-0.380
7504,-0.225,-0.355
7505,-0.195,-0.340
7506,-0.170,-0.345
7507,-0.160,-0.350
7508,-0.170,-0.330
7509,-0.150,-0.325
7510,-0.145,-0.330
7511,-0.120,-0.305
7512,-0.150,-0.305
7513,-0.145,-0.295
7514,-0.150,-0.275
7515,-0.175,-0.255
7516,-0.195,-0.240
7517,-0.225,-0.230
7518,-0.245,-0.230
7519,-0.260,-0.225
7520,-0.265,-0.215
7521,-0.290,-0.225
7522,-0.290,-0.225
7523,-0.315,-0.250
7524,-0.330,-0.265
7525,-0.320,-0.265
7526,-0.330,-0.290
7527,-0.325,-0.280
7528,-0.335,-0.305
7529,-0.330,-0.300
7530,-0.340,-0.325
7531,-0.340,-0.310
7532,-0.325,-0.320
7533,-0.320,-0.305
7534,-0.335,-0.320
7535,-0.340,-0.320
7536,-0.330,-0.310
7537,-0.315,-0.310
7538,-0.305,-0.305
7539,-0.335,-0.310
7540,-0.335,-0.305
7541,-0.330,-0.310
7542,-0.325,-0.295
7543,-0.325,-0.295
7544,-0.355,-0.315
7545,-0.345,-0.305
7546,-0.340,-0.315
7547,-0.340,-0.330
7548,-0.335,-0.310
7549,-0.355,-0.320
7550,-0.345,-0.325
7551,-0.365,-0.325
7552,-0.360,-0.345
7553,-0.355,-0.320
7554,-0.340,-0.330
7555,-0.350,-0.335
7556,-0.350,-0.335
7557,-0.350,-0.325
7558,-0.350,-0.325
7559,-0.355,-0.345
7560,-0.340,-0.330
7561,-0.350,-0.325
7562,-0.355,-0.330
7563,-0.355,-0.330
7564,-0.360,-0.330
7565,-0.345,-0.320
7566,-0.345,-0.320
7567,-0.345,-0.320
7568,-0.330,-0.310
7569,-0.330,-0.320
7570,-0.330,-0.320
7571,-0.335,-0.320
7572,-0.340,-0.330
7573,-0.320,-0.315
7574,-0.325,-0.280
7575,-0.305,-0.265
7576,-0.305,-0.245
7577,-0.245,-0.230
7578,-0.265,-0.215
7579,-0.270,-0.185
7580,-0.270,-0.175
7581,-0.275,-0.195
7582,-0.290,-0.245
7583,-0.305,-0.240
7584,-0.320,-0.240
7585,-0.315,-0.240
7586,-0.315,-0.270
7587,-0.300,-0.330
7588,-0.310,-0.360
7589,-0.320,-0.360
7590,-0.335,-0.345
7591,-0.330,-0.345
7592,-0.320,-0.365
7593,-0.315,-0.335
7594,-0.310,-0.365
7595,-0.335,-0.415
7596,-0.330,-0.625
7597,-0.320,-0.425
7598,-0.265,0.405
7599,-0.075,1.610
7600,0.085,2.685
7601,0.180,2.115
7602,0.065,0.875
7603,-0.265,0.190
7604,-0.415,-0.045
7605,-0.345,-0.195
7606,-0.275,-0.280
7607,-0.275,-0.335
7608,-0.290,-0.370
7609,-0.295,-0.380
7610,-0.305,-0.425
7611,-0.295,-0.420
7612,-0.275,-0.425
7613,-0.275,-0.415
7614,-0.280,-0.420
7615,-0.280,-0.425
7616,-0.280,-0.440
7617,-0.265,-0.420
7618,-0.270,-0.420
7619,-0.260,-0.430
7620,-0.255,-0.405
7621,-0.250,-0.430
7622,-0.235,-0.390
7623,-0.235,-0.400
7624,-0.210,-0.420
7625,-0.220,-0.405
7626,-0.200,-0.405
7627,-0.200,-0.385
7628,-0.185,-0.380
7629,-0.155,-0.365
7630,-0.160,-0.360
7631,-0.135,-0.365
7632,-0.115,-0.350
7633,-0.095,-0.345
7634,-0.110,-0.335
7635,-0.105,-0.340
7636,-0.070,-0.320
7637,-0.070,-0.320
7638,-0.075,-0.300
7639,-0.080,-0.275
7640,-0.105,-0.265
7641,-0.115,-0.230
7642,-0.145,-0.215
7643,-0.180,-0.205
7644,-0.180,-0.190
7645,-0.210,-0.210
7646,-0.225,-0.205
7647,-0.245,-0.230
7648,-0.265,-0.250
7649,-0.275,-0.275
7650,-0.275,-0.295
7651,-0.290,-0.285
7652,-0.290,-0.305
7653,-0.285,-0.330
7654,-0.300,-0.330
7655,-0.295,-0.345
7656,-0.270,-0.325
7657,-0.290,-0.345
7658,-0.280,-0.335
7659,-0.285,-0.330
7660,-0.305,-0.345
7661,-0.280,-0.340
7662,-0.285,-0.345
7663,-0.265,-0.340
7664,-0.290,-0.335
7665,-0.285,-0.340
7666,-0.290,-0.340
7667,-0.290,-0.335
7668,-0.285,-0.335
7669,-0.285,-0.335
7670,-0.285,-0.335
7671,-0.300,-0.345
7672,-0.300,-0.330
7673,-0.300,-0.350
7674,-0.315,-0.345
7675,-0.290,-0.345
7676,-0.305,-0.360
7677,-0.290,-0.350
7678,-0.295,-0.365
7679,-0.295,-0.365
